File: data/T25/3C/1.csv
time_s,voltage_v,current_a,chargecapacity_ah,dischargecapacity_ah,charge_energy_wh,discharge_energy_wh,voltagedot_v_per_s,temp_degc
1,3.008,0.000,0.000,0.000,0.000,0.000,0.000,24.344
102,3.331,1.625,0.019,0.000,0.062,0.001,0.002,24.350
204,3.463,1.625,0.065,0.000,0.219,0.001,0.001,24.525
306,3.535,1.625,0.111,0.000,0.380,0.001,0.000,24.742
408,3.550,1.625,0.157,0.000,0.544,0.001,0.000,24.946
510,3.557,1.625,0.203,0.000,0.707,0.001,0.000,25.237
612,3.566,1.625,0.249,0.000,0.871,0.001,0.000,25.412
714,3.576,1.625,0.295,0.000,1.036,0.001,0.000,25.578
816,3.586,1.625,0.341,0.000,1.201,0.001,0.000,25.632
918,3.597,1.625,0.387,0.000,1.366,0.001,0.000,25.710
1020,3.607,1.625,0.433,0.000,1.532,0.001,0.000,25.809
1122,3.618,1.625,0.479,0.000,1.698,0.001,0.000,25.843
1224,3.630,1.625,0.526,0.000,1.865,0.001,0.000,25.774
1326,3.640,1.625,0.572,0.000,2.033,0.001,0.000,25.796
1428,3.649,1.625,0.618,0.000,2.200,0.001,0.000,25.705
1530,3.656,1.625,0.664,0.000,2.369,0.001,0.000,25.703
1632,3.663,1.625,0.710,0.000,2.537,0.001,0.000,25.743
1734,3.670,1.625,0.756,0.000,2.706,0.001,0.000,25.705
1836,3.677,1.625,0.802,0.000,2.875,0.001,0.000,25.764
1938,3.685,1.625,0.848,0.000,3.045,0.001,0.000,25.686
2040,3.693,1.625,0.894,0.000,3.215,0.001,0.000,25.743
2142,3.701,1.625,0.940,0.000,3.385,0.001,0.000,25.725
2244,3.710,1.625,0.986,0.000,3.556,0.001,0.000,25.720
2346,3.719,1.625,1.032,0.000,3.727,0.001,0.000,25.858
2448,3.727,1.625,1.078,0.000,3.898,0.001,0.000,25.724
2550,3.736,1.625,1.124,0.000,4.070,0.001,0.000,26.186
2652,3.744,1.625,1.170,0.000,4.242,0.001,0.000,26.251
2754,3.752,1.625,1.216,0.000,4.415,0.001,0.000,26.116
2856,3.760,1.625,1.262,0.000,4.588,0.001,0.000,25.922
2958,3.769,1.625,1.308,0.000,4.761,0.001,0.000,25.930
3060,3.778,1.625,1.355,0.000,4.935,0.001,0.000,25.910
3162,3.787,1.625,1.401,0.000,5.109,0.001,0.000,25.983
3264,3.796,1.625,1.447,0.000,5.284,0.001,0.000,25.915
3366,3.806,1.625,1.493,0.000,5.459,0.001,0.000,25.983
3468,3.816,1.625,1.539,0.000,5.634,0.001,0.000,25.894
3570,3.827,1.625,1.585,0.000,5.810,0.001,0.000,25.939
3672,3.838,1.625,1.631,0.000,5.987,0.001,0.000,25.951
3774,3.850,1.625,1.677,0.000,6.164,0.001,0.000,25.917
3876,3.862,1.625,1.723,0.000,6.341,0.001,0.000,25.951
3978,3.874,1.625,1.769,0.000,6.519,0.001,0.000,25.992
4080,3.887,1.625,1.815,0.000,6.698,0.001,0.000,25.973
4182,3.900,1.625,1.861,0.000,6.877,0.001,0.000,25.903
4284,3.913,1.625,1.907,0.000,7.057,0.001,0.000,25.959
4386,3.926,1.625,1.953,0.000,7.238,0.001,0.000,25.939
4488,3.939,1.625,1.999,0.000,7.419,0.001,0.000,25.941
4590,3.953,1.625,2.045,0.000,7.601,0.001,0.000,25.978
4692,3.966,1.625,2.091,0.000,7.783,0.001,0.000,25.961
4794,3.979,1.625,2.137,0.000,7.966,0.001,0.000,25.970
4896,3.992,1.625,2.183,0.000,8.149,0.001,0.000,25.980
4998,4.005,1.625,2.230,0.000,8.334,0.001,0.000,26.010
5100,4.018,1.625,2.276,0.000,8.518,0.001,0.000,25.984
5202,4.031,1.625,2.322,0.000,8.704,0.001,0.000,26.000
5304,4.044,1.625,2.368,0.000,8.890,0.001,0.000,25.976
5406,4.057,1.625,2.414,0.000,9.076,0.001,0.000,25.993
5508,4.071,1.625,2.460,0.000,9.263,0.001,0.000,26.028
5610,4.085,1.625,2.506,0.000,9.451,0.001,0.000,26.004
5712,4.099,1.625,2.552,0.000,9.639,0.001,0.000,25.990
5814,4.115,1.625,2.598,0.000,9.829,0.001,0.000,26.022
5916,4.131,1.625,2.644,0.000,10.018,0.001,0.000,26.037
6018,4.148,1.625,2.690,0.000,10.209,0.001,0.000,26.067
6120,4.166,1.625,2.736,0.000,10.401,0.001,0.000,26.104
6222,4.184,1.625,2.782,0.000,10.593,0.001,0.000,26.071
6324,4.200,1.602,2.828,0.000,10.785,0.001,0.000,26.122
6426,4.200,1.412,2.871,0.000,10.964,0.001,0.000,26.104
6528,4.200,1.272,2.908,0.000,11.123,0.001,0.000,26.018
6630,4.200,1.152,2.943,0.000,11.267,0.001,0.000,25.947
6732,4.200,1.052,2.974,0.000,11.398,0.001,0.000,25.806
6834,4.200,0.964,3.002,0.000,11.518,0.001,0.000,25.690
6936,4.200,0.889,3.029,0.000,11.628,0.001,0.000,25.601
7038,4.200,0.824,3.053,0.000,11.730,0.001,0.000,25.529
7140,4.200,0.767,3.075,0.000,11.824,0.001,0.000,25.386
7242,4.200,0.715,3.096,0.000,11.912,0.001,0.000,25.291
7344,4.200,0.668,3.116,0.000,11.995,0.001,0.000,25.257
7446,4.200,0.625,3.134,0.000,12.071,0.001,0.000,25.205
7548,4.200,0.584,3.151,0.000,12.143,0.001,0.000,25.138
7650,4.200,0.544,3.167,0.000,12.210,0.001,0.000,25.035
7752,4.200,0.507,3.182,0.000,12.273,0.001,0.000,25.049
7854,4.200,0.470,3.196,0.000,12.331,0.001,0.000,24.983
7956,4.200,0.436,3.209,0.000,12.385,0.001,0.000,24.980
8058,4.200,0.405,3.221,0.000,12.435,0.001,0.000,24.936
8160,4.200,0.374,3.232,0.000,12.481,0.001,0.000,24.833
8262,4.200,0.345,3.242,0.000,12.524,0.001,0.000,24.870
8364,4.200,0.319,3.251,0.000,12.563,0.001,0.000,24.835
8466,4.200,0.293,3.260,0.000,12.600,0.001,0.000,24.843
8568,4.200,0.270,3.268,0.000,12.633,0.001,0.000,24.814
8670,4.200,0.249,3.275,0.000,12.664,0.001,0.000,24.774
8772,4.200,0.228,3.282,0.000,12.693,0.001,0.000,24.771
8874,4.200,0.209,3.288,0.000,12.719,0.001,0.000,24.717
8976,4.200,0.193,3.294,0.000,12.743,0.001,0.000,24.726
9078,4.200,0.178,3.299,0.000,12.765,0.001,0.000,24.725
9180,4.200,0.164,3.304,0.000,12.785,0.001,0.000,24.759
9282,4.200,0.151,3.309,0.000,12.804,0.001,0.000,24.731
9384,4.200,0.139,3.313,0.000,12.821,0.001,0.000,24.693
9486,4.200,0.128,3.317,0.000,12.837,0.001,0.000,24.678
9588,4.200,0.118,3.320,0.000,12.851,0.001,0.000,24.684
9690,4.200,0.109,3.323,0.000,12.865,0.001,0.000,24.702
9792,4.200,0.102,3.326,0.000,12.878,0.001,0.000,24.661
9894,4.200,0.096,3.329,0.000,12.889,0.001,0.000,24.621
9996,4.200,0.089,3.332,0.000,12.900,0.001,0.000,24.645
10098,4.200,0.082,3.334,0.000,12.910,0.001,0.000,24.646
10200,4.200,0.077,3.336,0.000,12.920,0.001,0.000,24.621
10302,4.200,0.071,3.338,0.000,12.928,0.001,0.000,24.674
10404,4.200,0.067,3.340,0.000,12.937,0.001,0.000,24.635
10505,4.193,0.000,3.341,0.000,12.939,0.001,0.000,24.676
10607,4.192,0.000,3.341,0.000,12.939,0.001,0.000,24.610
10709,4.190,0.000,3.341,0.000,12.939,0.001,0.000,24.622
10811,4.189,0.000,3.341,0.000,12.939,0.001,0.000,24.621
10913,4.188,0.000,3.341,0.000,12.939,0.001,0.000,24.629
11015,4.187,0.000,3.341,0.000,12.939,0.001,0.000,24.620
11117,4.187,0.000,3.341,0.000,12.939,0.001,0.000,24.601
11219,4.186,0.000,3.341,0.000,12.939,0.001,0.000,24.599
11321,4.185,0.000,3.341,0.000,12.939,0.001,0.000,24.561
11423,4.185,0.000,3.341,0.000,12.939,0.001,0.000,24.573
11525,4.184,0.000,3.341,0.000,12.939,0.001,0.000,24.579
11627,4.184,0.000,3.341,0.000,12.939,0.001,0.000,24.619
11729,4.183,0.000,3.341,0.000,12.939,0.001,0.000,24.584
11831,4.183,0.000,3.341,0.000,12.939,0.001,0.000,24.597
11933,4.182,0.000,3.341,0.000,12.939,0.001,0.000,24.651
12035,4.182,0.000,3.341,0.000,12.939,0.001,0.000,24.596
12137,4.181,0.000,3.341,0.000,12.939,0.001,0.000,24.578
12239,4.181,0.000,3.341,0.000,12.939,0.001,0.000,24.592
12341,4.181,0.000,3.341,0.000,12.939,0.001,0.000,24.582
12443,4.180,0.000,3.341,0.000,12.939,0.001,0.000,24.556
12545,4.180,0.000,3.341,0.000,12.939,0.001,0.000,24.593
12647,4.180,0.000,3.341,0.000,12.939,0.001,0.000,24.604
12749,4.180,0.000,3.341,0.000,12.939,0.001,0.000,24.571
12851,4.179,0.000,3.341,0.000,12.939,0.001,0.000,24.553
12953,4.179,0.000,3.341,0.000,12.939,0.001,0.000,24.544
13055,4.179,0.000,3.341,0.000,12.939,0.001,0.000,24.582
13157,4.179,0.000,3.341,0.000,12.939,0.001,0.000,24.556
13259,4.178,0.000,3.341,0.000,12.939,0.001,0.000,24.553
13361,4.178,0.000,3.341,0.000,12.939,0.001,0.000,24.581
13463,4.178,0.000,3.341,0.000,12.939,0.001,0.000,24.629
13565,4.178,0.000,3.341,0.000,12.939,0.001,0.000,24.596
13667,4.178,0.000,3.341,0.000,12.939,0.001,0.000,25.139
13769,4.177,0.000,3.341,0.000,12.939,0.001,0.000,24.660
13871,4.177,0.000,3.341,0.000,12.939,0.001,0.000,24.614
13973,4.177,0.000,3.341,0.000,12.939,0.001,0.000,24.590
14075,3.432,-10.049,3.341,0.131,12.939,0.458,-0.002,27.333
14177,3.306,-10.047,3.341,0.416,12.939,1.416,-0.001,33.768
14279,3.190,-10.047,3.341,0.701,12.939,2.341,-0.001,38.144
14381,3.084,-10.046,3.341,0.986,12.939,3.234,-0.001,41.552
14483,2.985,-10.046,3.341,1.270,12.939,4.097,-0.001,44.303
14585,2.883,-10.046,3.341,1.555,12.939,4.933,-0.001,46.856
14687,2.764,-10.046,3.341,1.839,12.939,5.737,-0.001,49.100
14789,2.621,-10.046,3.341,2.124,12.939,6.504,-0.001,51.395
14890,3.443,0.000,3.341,2.305,12.939,6.968,0.001,54.526
14992,3.484,0.000,3.341,2.305,12.939,6.968,0.000,49.150
15094,3.518,0.000,3.341,2.305,12.939,6.968,0.000,42.557
15196,3.533,0.000,3.341,2.305,12.939,6.968,0.000,37.793
15298,3.540,0.000,3.341,2.305,12.939,6.968,0.000,34.264
15400,3.545,0.000,3.341,2.305,12.939,6.968,0.000,31.732
15502,3.548,0.000,3.341,2.305,12.939,6.968,0.000,29.940
15604,3.550,0.000,3.341,2.305,12.939,6.968,0.000,28.657
15706,3.550,0.000,3.341,2.305,12.939,6.968,0.000,27.653
15808,3.552,0.000,3.341,2.305,12.939,6.968,0.000,26.884
15910,3.552,0.000,3.341,2.305,12.939,6.968,0.000,26.344
16012,3.553,0.000,3.341,2.305,12.939,6.968,0.000,25.883
16114,3.553,0.000,3.341,2.305,12.939,6.968,0.000,25.614
16216,3.553,0.000,3.341,2.305,12.939,6.968,0.000,25.333
16318,3.553,0.000,3.341,2.305,12.939,6.968,0.000,25.144
16420,3.554,0.000,3.341,2.305,12.939,6.968,0.000,24.995
16522,3.554,0.000,3.341,2.305,12.939,6.968,0.000,24.883
16624,3.554,0.000,3.341,2.305,12.939,6.968,0.000,24.813
16726,3.554,0.000,3.341,2.305,12.939,6.968,0.000,24.745
16828,3.554,0.000,3.341,2.305,12.939,6.968,0.000,24.673
16930,3.555,0.000,3.341,2.305,12.939,6.968,0.000,24.592
17032,3.555,0.000,3.341,2.305,12.939,6.968,0.000,24.589
17134,3.555,0.000,3.341,2.305,12.939,6.968,0.000,24.550
17236,3.555,0.000,3.341,2.305,12.939,6.968,0.000,24.550
17338,3.555,0.000,3.341,2.305,12.939,6.968,0.000,24.560
17440,3.555,0.000,3.341,2.305,12.939,6.968,0.000,24.540
17542,3.555,0.000,3.341,2.305,12.939,6.968,0.000,24.503
17644,3.555,0.000,3.341,2.305,12.939,6.968,0.000,24.541
17746,3.555,0.000,3.341,2.305,12.939,6.968,0.000,24.539
17848,3.555,0.000,3.341,2.305,12.939,6.968,0.000,24.498
17950,3.555,0.000,3.341,2.305,12.939,6.968,0.000,24.507
18052,3.555,0.000,3.341,2.305,12.939,6.968,0.000,24.503
18154,3.555,0.000,3.341,2.305,12.939,6.968,0.000,24.504
18256,3.555,0.000,3.341,2.305,12.939,6.968,0.000,24.490
18358,3.556,0.000,3.341,2.305,12.939,6.968,0.000,24.482
18453,3.556,0.000,3.341,2.305,12.939,6.968,0.000,24.442