File: data/T25/3C/2.csv
time_s,voltage_v,current_a,chargecapacity_ah,dischargecapacity_ah,charge_energy_wh,discharge_energy_wh,voltagedot_v_per_s,temp_degc
1,3.351,0.000,0.000,0.000,0.000,0.000,0.000,24.346
118,3.351,0.000,0.000,0.000,0.000,0.000,0.000,24.349
235,3.351,0.000,0.000,0.000,0.000,0.000,0.000,24.361
352,3.351,0.000,0.000,0.000,0.000,0.000,0.000,24.392
469,3.351,0.000,0.000,0.000,0.000,0.000,0.000,24.423
586,3.351,0.000,0.000,0.000,0.000,0.000,0.000,24.361
703,3.351,0.000,0.000,0.000,0.000,0.000,0.000,24.390
820,3.351,0.000,0.000,0.000,0.000,0.000,0.000,24.398
937,3.351,0.000,0.000,0.000,0.000,0.000,0.000,24.372
1054,3.351,0.000,0.000,0.000,0.000,0.000,0.000,24.377
1171,3.351,0.000,0.000,0.000,0.000,0.000,0.000,24.367
1288,3.351,0.000,0.000,0.000,0.000,0.000,0.000,24.363
1405,3.351,0.000,0.000,0.000,0.000,0.000,0.000,24.437
1522,3.351,0.000,0.000,0.000,0.000,0.000,0.000,24.411
1639,3.351,0.000,0.000,0.000,0.000,0.000,0.000,24.776
1756,3.351,0.000,0.000,0.000,0.000,0.000,0.000,24.655
1873,3.351,0.000,0.000,0.000,0.000,0.000,0.000,24.451
1990,3.351,0.000,0.000,0.000,0.000,0.000,0.000,24.460
2107,3.351,0.000,0.000,0.000,0.000,0.000,0.000,24.460
2224,3.351,0.000,0.000,0.000,0.000,0.000,0.000,24.451
2341,3.351,0.000,0.000,0.000,0.000,0.000,0.000,24.431
2458,3.351,0.000,0.000,0.000,0.000,0.000,0.000,24.405
2575,3.351,0.000,0.000,0.000,0.000,0.000,0.000,24.434
2692,3.351,0.000,0.000,0.000,0.000,0.000,0.000,24.424
2809,3.351,0.000,0.000,0.000,0.000,0.000,0.000,24.408
2926,3.352,0.000,0.000,0.000,0.000,0.000,0.000,24.448
3043,3.351,0.000,0.000,0.000,0.000,0.000,0.000,24.408
3160,3.351,0.000,0.000,0.000,0.000,0.000,0.000,24.372
3277,3.351,0.000,0.000,0.000,0.000,0.000,0.000,24.341
3394,3.351,0.000,0.000,0.000,0.000,0.000,0.000,24.379
3511,3.351,0.000,0.000,0.000,0.000,0.000,0.000,24.439
3627,3.521,1.625,0.012,0.000,0.043,0.000,0.001,24.437
3744,3.555,1.625,0.065,0.000,0.230,0.000,0.000,24.673
3861,3.577,1.625,0.118,0.000,0.418,0.000,0.000,24.859
3978,3.595,1.625,0.171,0.000,0.608,0.000,0.000,24.987
4095,3.612,1.625,0.223,0.000,0.798,0.000,0.000,25.055
4212,3.625,1.625,0.276,0.000,0.989,0.000,0.000,25.077
4329,3.635,1.625,0.329,0.000,1.181,0.000,0.000,25.190
4446,3.644,1.625,0.382,0.000,1.373,0.000,0.000,25.160
4563,3.654,1.625,0.435,0.000,1.566,0.000,0.000,25.179
4680,3.663,1.625,0.488,0.000,1.759,0.000,0.000,25.260
4797,3.673,1.625,0.540,0.000,1.953,0.000,0.000,25.285
4914,3.684,1.625,0.593,0.000,2.147,0.000,0.000,25.291
5031,3.694,1.625,0.646,0.000,2.342,0.000,0.000,25.297
5148,3.705,1.625,0.699,0.000,2.538,0.000,0.000,25.336
5265,3.715,1.625,0.752,0.000,2.734,0.000,0.000,25.402
5382,3.726,1.625,0.805,0.000,2.930,0.000,0.000,25.407
5499,3.735,1.625,0.857,0.000,3.127,0.000,0.000,25.402
5616,3.745,1.625,0.910,0.000,3.325,0.000,0.000,25.409
5733,3.754,1.625,0.963,0.000,3.523,0.000,0.000,25.453
5850,3.764,1.625,1.016,0.000,3.721,0.000,0.000,25.513
5967,3.775,1.625,1.069,0.000,3.921,0.000,0.000,25.494
6084,3.785,1.625,1.122,0.000,4.120,0.000,0.000,25.504
6201,3.796,1.625,1.174,0.000,4.320,0.000,0.000,25.484
6318,3.807,1.625,1.227,0.000,4.521,0.000,0.000,25.515
6435,3.819,1.625,1.280,0.000,4.723,0.000,0.000,25.497
6552,3.832,1.625,1.333,0.000,4.925,0.000,0.000,25.557
6669,3.845,1.625,1.386,0.000,5.128,0.000,0.000,25.531
6786,3.859,1.625,1.438,0.000,5.331,0.000,0.000,25.532
6903,3.874,1.625,1.491,0.000,5.535,0.000,0.000,25.551
7020,3.889,1.625,1.544,0.000,5.740,0.000,0.000,25.564
7137,3.904,1.625,1.597,0.000,5.946,0.000,0.000,25.522
7254,3.919,1.625,1.650,0.000,6.153,0.000,0.000,25.558
7371,3.935,1.625,1.703,0.000,6.360,0.000,0.000,25.565
7488,3.950,1.625,1.755,0.000,6.569,0.000,0.000,25.576
7605,3.966,1.625,1.808,0.000,6.778,0.000,0.000,25.550
7722,3.981,1.625,1.861,0.000,6.988,0.000,0.000,25.599
7839,3.997,1.625,1.914,0.000,7.198,0.000,0.000,25.564
7956,4.012,1.625,1.967,0.000,7.410,0.000,0.000,25.548
8073,4.027,1.625,2.020,0.000,7.622,0.000,0.000,25.592
8190,4.042,1.625,2.072,0.000,7.835,0.000,0.000,25.581
8307,4.058,1.625,2.125,0.000,8.049,0.000,0.000,25.563
8424,4.074,1.625,2.178,0.000,8.264,0.000,0.000,25.563
8541,4.092,1.625,2.231,0.000,8.480,0.000,0.000,25.612
8658,4.110,1.625,2.284,0.000,8.696,0.000,0.000,25.615
8775,4.129,1.625,2.337,0.000,8.914,0.000,0.000,25.702
8892,4.149,1.625,2.389,0.000,9.132,0.000,0.000,25.666
9009,4.170,1.625,2.442,0.000,9.352,0.000,0.000,25.686
9126,4.191,1.625,2.495,0.000,9.573,0.000,0.000,25.745
9243,4.200,1.464,2.546,0.000,9.787,0.000,0.000,25.714
9360,4.200,1.285,2.590,0.000,9.974,0.000,0.000,25.645
9477,4.200,1.141,2.630,0.000,10.139,0.000,0.000,25.553
9594,4.200,1.024,2.665,0.000,10.287,0.000,0.000,25.431
9711,4.200,0.925,2.697,0.000,10.419,0.000,0.000,25.315
9828,4.200,0.840,2.725,0.000,10.540,0.000,0.000,25.205
9945,4.200,0.768,2.751,0.000,10.649,0.000,0.000,25.081
10062,4.200,0.705,2.775,0.000,10.750,0.000,0.000,25.092
10179,4.200,0.647,2.797,0.000,10.842,0.000,0.000,24.966
10296,4.200,0.594,2.817,0.000,10.927,0.000,0.000,24.864
10413,4.200,0.543,2.836,0.000,11.004,0.000,0.000,24.870
10530,4.200,0.496,2.853,0.000,11.075,0.000,0.000,24.746
10647,4.200,0.452,2.868,0.000,11.140,0.000,0.000,24.717
10764,4.200,0.411,2.882,0.000,11.199,0.000,0.000,24.741
10881,4.200,0.373,2.895,0.000,11.252,0.000,0.000,24.684
10998,4.200,0.337,2.906,0.000,11.301,0.000,0.000,24.639
11115,4.200,0.305,2.917,0.000,11.344,0.000,0.000,24.560
11232,4.200,0.275,2.926,0.000,11.384,0.000,0.000,24.616
11349,4.200,0.248,2.935,0.000,11.420,0.000,0.000,24.505
11466,4.200,0.224,2.942,0.000,11.452,0.000,0.000,24.525
11583,4.200,0.202,2.949,0.000,11.481,0.000,0.000,24.509
11700,4.200,0.181,2.955,0.000,11.507,0.000,0.000,24.456
11817,4.200,0.164,2.961,0.000,11.530,0.000,0.000,24.459
11934,4.200,0.148,2.966,0.000,11.551,0.000,0.000,24.457
12051,4.200,0.133,2.971,0.000,11.571,0.000,0.000,24.439
12168,4.200,0.120,2.975,0.000,11.588,0.000,0.000,24.475
12285,4.200,0.110,2.978,0.000,11.603,0.000,0.000,24.440
12402,4.200,0.098,2.982,0.000,11.618,0.000,0.000,24.413
12519,4.200,0.090,2.985,0.000,11.630,0.000,0.000,24.405
12636,4.200,0.082,2.988,0.000,11.642,0.000,0.000,24.504
12753,4.200,0.075,2.990,0.000,11.653,0.000,0.000,24.395
12870,4.200,0.069,2.992,0.000,11.663,0.000,0.000,25.056
12986,4.193,0.000,2.993,0.000,11.666,0.000,0.000,25.113
13103,4.191,0.000,2.993,0.000,11.666,0.000,0.000,24.711
13220,4.190,0.000,2.993,0.000,11.666,0.000,0.000,24.545
13337,4.189,0.000,2.993,0.000,11.666,0.000,0.000,24.602
13454,4.188,0.000,2.993,0.000,11.666,0.000,0.000,24.551
13571,4.187,0.000,2.993,0.000,11.666,0.000,0.000,24.542
13688,4.186,0.000,2.993,0.000,11.666,0.000,0.000,24.463
13805,4.186,0.000,2.993,0.000,11.666,0.000,0.000,24.465
13922,4.185,0.000,2.993,0.000,11.666,0.000,0.000,24.443
14039,4.185,0.000,2.993,0.000,11.666,0.000,0.000,24.393
14156,4.184,0.000,2.993,0.000,11.666,0.000,0.000,24.421
14273,4.184,0.000,2.993,0.000,11.666,0.000,0.000,24.419
14390,4.183,0.000,2.993,0.000,11.666,0.000,0.000,24.401
14507,4.183,0.000,2.993,0.000,11.666,0.000,0.000,24.416
14624,4.183,0.000,2.993,0.000,11.666,0.000,0.000,24.372
14741,4.182,0.000,2.993,0.000,11.666,0.000,0.000,24.378
14858,4.182,0.000,2.993,0.000,11.666,0.000,0.000,24.342
14975,4.182,0.000,2.993,0.000,11.666,0.000,0.000,24.369
15092,4.182,0.000,2.993,0.000,11.666,0.000,0.000,24.402
15209,4.181,0.000,2.993,0.000,11.666,0.000,0.000,24.361
15326,4.181,0.000,2.993,0.000,11.666,0.000,0.000,24.379
15443,4.181,0.000,2.993,0.000,11.666,0.000,0.000,24.353
15560,4.181,0.000,2.993,0.000,11.666,0.000,0.000,24.330
15677,4.180,0.000,2.993,0.000,11.666,0.000,0.000,24.345
15794,4.180,0.000,2.993,0.000,11.666,0.000,0.000,24.359
15911,4.180,0.000,2.993,0.000,11.666,0.000,0.000,24.383
16028,4.180,0.000,2.993,0.000,11.666,0.000,0.000,24.374
16145,4.180,0.000,2.993,0.000,11.666,0.000,0.000,24.371
16262,4.180,0.000,2.993,0.000,11.666,0.000,0.000,24.364
16379,4.179,0.000,2.993,0.000,11.666,0.000,0.000,24.368
16496,4.179,0.000,2.993,0.000,11.666,0.000,0.000,24.394
16612,3.440,-9.601,2.993,0.245,11.666,0.858,-0.001,29.134
16729,3.330,-9.600,2.993,0.557,11.666,1.915,-0.001,33.725
16846,3.208,-9.600,2.993,0.869,11.666,2.935,-0.001,37.053
16963,3.095,-9.599,2.993,1.181,11.666,3.917,-0.001,39.472
17080,2.992,-9.599,2.993,1.493,11.666,4.867,-0.001,41.844
17197,2.877,-9.599,2.993,1.805,11.666,5.783,-0.001,43.546
17314,2.735,-9.599,2.993,2.117,11.666,6.659,-0.001,45.933
17431,2.546,-9.599,2.993,2.429,11.666,7.485,-0.002,48.410
17548,3.437,0.000,2.993,2.488,11.666,7.632,0.000,47.059
17665,3.463,0.000,2.993,2.488,11.666,7.632,0.000,40.199
17782,3.486,0.000,2.993,2.488,11.666,7.632,0.000,35.540
17899,3.497,0.000,2.993,2.488,11.666,7.632,0.000,32.246
18016,3.503,0.000,2.993,2.488,11.666,7.632,0.000,30.025
18133,3.507,0.000,2.993,2.488,11.666,7.632,0.000,28.422
18250,3.510,0.000,2.993,2.488,11.666,7.632,0.000,27.373
18367,3.512,0.000,2.993,2.488,11.666,7.632,0.000,26.593
18484,3.513,0.000,2.993,2.488,11.666,7.632,0.000,26.001
18601,3.515,0.000,2.993,2.488,11.666,7.632,0.000,25.599
18718,3.516,0.000,2.993,2.488,11.666,7.632,0.000,25.254
18835,3.516,0.000,2.993,2.488,11.666,7.632,0.000,25.052
18952,3.517,0.000,2.993,2.488,11.666,7.632,0.000,24.853
19069,3.518,0.000,2.993,2.488,11.666,7.632,0.000,24.785
19186,3.518,0.000,2.993,2.488,11.666,7.632,0.000,24.684
19303,3.518,0.000,2.993,2.488,11.666,7.632,0.000,24.608
19420,3.519,0.000,2.993,2.488,11.666,7.632,0.000,24.522
19537,3.519,0.000,2.993,2.488,11.666,7.632,0.000,24.550
19654,3.520,0.000,2.993,2.488,11.666,7.632,0.000,24.477
19771,3.520,0.000,2.993,2.488,11.666,7.632,0.000,24.497
19888,3.520,0.000,2.993,2.488,11.666,7.632,0.000,24.451
20005,3.520,0.000,2.993,2.488,11.666,7.632,0.000,24.417
20122,3.520,0.000,2.993,2.488,11.666,7.632,0.000,24.463
20239,3.521,0.000,2.993,2.488,11.666,7.632,0.000,24.361
20356,3.521,0.000,2.993,2.488,11.666,7.632,0.000,24.368
20473,3.521,0.000,2.993,2.488,11.666,7.632,0.000,24.423
20590,3.521,0.000,2.993,2.488,11.666,7.632,0.000,24.393
20707,3.521,0.000,2.993,2.488,11.666,7.632,0.000,24.406
20824,3.521,0.000,2.993,2.488,11.666,7.632,0.000,24.387
20941,3.521,0.000,2.993,2.488,11.666,7.632,0.000,24.403
21053,3.522,0.000,2.993,2.488,11.666,7.632,0.000,24.363