File: data/T25/3C/4.csv
time_s,voltage_v,current_a,chargecapacity_ah,dischargecapacity_ah,charge_energy_wh,discharge_energy_wh,voltagedot_v_per_s,temp_degc
1,2.992,0.000,0.000,0.000,0.000,0.000,0.000,24.412
104,3.329,1.625,0.020,0.000,0.065,0.000,0.002,24.511
208,3.468,1.625,0.067,0.000,0.225,0.000,0.001,24.726
312,3.542,1.625,0.114,0.000,0.390,0.000,0.000,24.941
416,3.558,1.625,0.161,0.000,0.557,0.000,0.000,25.223
520,3.565,1.625,0.208,0.000,0.724,0.000,0.000,25.607
624,3.574,1.625,0.255,0.000,0.891,0.000,0.000,25.873
728,3.584,1.625,0.302,0.000,1.059,0.000,0.000,26.073
832,3.595,1.625,0.349,0.000,1.228,0.000,0.000,26.187
936,3.605,1.625,0.395,0.000,1.397,0.000,0.000,26.286
1040,3.617,1.625,0.442,0.000,1.567,0.000,0.000,26.325
1144,3.628,1.625,0.489,0.000,1.737,0.000,0.000,26.352
1248,3.639,1.625,0.536,0.000,1.907,0.000,0.000,26.370
1352,3.649,1.625,0.583,0.000,2.078,0.000,0.000,26.323
1456,3.658,1.625,0.630,0.000,2.250,0.000,0.000,26.348
1560,3.665,1.625,0.677,0.000,2.422,0.000,0.000,26.337
1664,3.672,1.625,0.724,0.000,2.594,0.000,0.000,26.329
1768,3.680,1.625,0.771,0.000,2.767,0.000,0.000,26.303
1872,3.688,1.625,0.818,0.000,2.940,0.000,0.000,26.324
1976,3.696,1.625,0.865,0.000,3.113,0.000,0.000,26.365
2080,3.704,1.625,0.912,0.000,3.287,0.000,0.000,26.346
2184,3.713,1.625,0.959,0.000,3.461,0.000,0.000,26.331
2288,3.720,1.625,1.006,0.000,3.635,0.000,0.000,26.412
2392,3.728,1.625,1.053,0.000,3.810,0.000,0.000,26.428
2496,3.737,1.625,1.100,0.000,3.985,0.000,0.000,26.438
2600,3.747,1.625,1.147,0.000,4.161,0.000,0.000,26.807
2704,3.754,1.625,1.194,0.000,4.337,0.000,0.002,26.823
2808,3.760,1.625,1.241,0.000,4.514,0.000,0.000,26.671
2912,3.769,1.625,1.288,0.000,4.690,0.000,0.000,26.696
3016,3.778,1.625,1.335,0.000,4.867,0.000,0.000,26.690
3120,3.787,1.625,1.381,0.000,5.045,0.000,0.000,26.750
3224,3.796,1.625,1.428,0.000,5.223,0.000,0.000,26.801
3328,3.806,1.625,1.475,0.000,5.401,0.000,0.000,26.814
3432,3.816,1.625,1.522,0.000,5.580,0.000,0.000,26.912
3536,3.827,1.625,1.569,0.000,5.760,0.000,0.000,26.878
3640,3.840,1.625,1.616,0.000,5.940,0.000,0.000,26.933
3744,3.852,1.625,1.663,0.000,6.120,0.000,0.000,26.902
3848,3.865,1.625,1.710,0.000,6.302,0.000,0.000,26.991
3952,3.878,1.625,1.757,0.000,6.483,0.000,0.000,26.980
4056,3.891,1.625,1.804,0.000,6.666,0.000,0.000,27.004
4160,3.905,1.625,1.851,0.000,6.849,0.000,0.000,26.999
4264,3.918,1.625,1.898,0.000,7.032,0.000,0.000,26.977
4368,3.931,1.625,1.945,0.000,7.217,0.000,0.000,26.995
4472,3.945,1.625,1.992,0.000,7.402,0.000,0.000,27.017
4576,3.958,1.625,2.039,0.000,7.587,0.000,0.000,27.017
4680,3.972,1.625,2.086,0.000,7.773,0.000,0.000,26.972
4784,3.986,1.625,2.133,0.000,7.960,0.000,0.000,27.034
4888,3.999,1.625,2.180,0.000,8.148,0.000,0.000,26.983
4992,4.013,1.625,2.227,0.000,8.336,0.000,0.000,27.019
5096,4.027,1.625,2.274,0.000,8.524,0.000,0.000,26.983
5200,4.040,1.625,2.320,0.000,8.714,0.000,0.000,26.959
5304,4.054,1.625,2.367,0.000,8.904,0.000,0.000,26.969
5408,4.067,1.625,2.414,0.000,9.094,0.000,0.000,26.974
5512,4.082,1.625,2.461,0.000,9.286,0.000,0.000,26.946
5616,4.097,1.625,2.508,0.000,9.478,0.000,0.000,26.938
5720,4.112,1.625,2.555,0.000,9.670,0.000,0.000,26.952
5824,4.128,1.625,2.602,0.000,9.864,0.000,0.000,26.899
5928,4.144,1.625,2.649,0.000,10.058,0.000,0.000,26.913
6032,4.162,1.625,2.696,0.000,10.253,0.000,0.000,26.862
6136,4.179,1.625,2.743,0.000,10.449,0.000,0.000,26.840
6240,4.196,1.625,2.790,0.000,10.645,0.000,0.000,26.889
6344,4.200,1.477,2.835,0.000,10.835,0.000,0.000,26.875
6448,4.200,1.327,2.876,0.000,11.005,0.000,0.000,26.781
6552,4.200,1.196,2.912,0.000,11.158,0.000,0.000,26.654
6656,4.200,1.083,2.945,0.000,11.296,0.000,0.000,26.514
6760,4.200,0.990,2.975,0.000,11.422,0.000,0.000,26.345
6864,4.200,0.908,3.002,0.000,11.537,0.000,0.000,26.143
6968,4.200,0.835,3.027,0.000,11.642,0.000,0.000,26.057
7072,4.200,0.773,3.051,0.000,11.740,0.000,0.000,25.909
7176,4.200,0.720,3.072,0.000,11.830,0.000,0.000,25.768
7280,4.200,0.674,3.092,0.000,11.914,0.000,0.000,25.665
7384,4.200,0.633,3.111,0.000,11.994,0.000,0.000,25.565
7488,4.200,0.596,3.129,0.000,12.068,0.000,0.000,25.538
7592,4.200,0.561,3.145,0.000,12.138,0.000,0.000,25.415
7696,4.200,0.527,3.161,0.000,12.204,0.000,0.000,25.346
7800,4.200,0.494,3.176,0.000,12.266,0.000,0.000,25.339
7904,4.200,0.463,3.190,0.000,12.324,0.000,0.000,25.249
8008,4.200,0.433,3.203,0.000,12.379,0.000,0.000,25.207
8112,4.200,0.403,3.215,0.000,12.429,0.000,0.000,25.170
8216,4.200,0.377,3.226,0.000,12.477,0.000,0.000,25.119
8320,4.200,0.349,3.236,0.000,12.521,0.000,0.000,25.029
8424,4.200,0.324,3.246,0.000,12.561,0.000,0.000,25.019
8528,4.200,0.300,3.255,0.000,12.599,0.000,0.000,25.013
8632,4.200,0.277,3.264,0.000,12.634,0.000,0.000,24.935
8736,4.200,0.257,3.271,0.000,12.667,0.000,0.000,24.944
8840,4.200,0.237,3.278,0.000,12.697,0.000,0.000,24.902
8944,4.200,0.219,3.285,0.000,12.724,0.000,0.000,24.886
9048,4.200,0.202,3.291,0.000,12.750,0.000,0.000,24.852
9152,4.200,0.187,3.297,0.000,12.773,0.000,0.000,24.836
9256,4.200,0.172,3.302,0.000,12.795,0.000,0.000,24.833
9360,4.200,0.159,3.307,0.000,12.815,0.000,0.000,24.827
9464,4.200,0.146,3.311,0.000,12.834,0.000,0.000,24.839
9568,4.200,0.135,3.315,0.000,12.851,0.000,0.000,24.792
9672,4.200,0.125,3.319,0.000,12.866,0.000,0.000,24.832
9776,4.200,0.115,3.322,0.000,12.881,0.000,0.000,24.821
9880,4.200,0.108,3.326,0.000,12.895,0.000,0.000,24.796
9984,4.200,0.099,3.329,0.000,12.907,0.000,0.000,24.830
10088,4.200,0.093,3.331,0.000,12.919,0.000,0.000,24.777
10192,4.200,0.086,3.334,0.000,12.930,0.000,0.000,24.791
10296,4.200,0.079,3.336,0.000,12.940,0.000,0.000,24.795
10400,4.200,0.074,3.338,0.000,12.949,0.000,0.000,24.761
10504,4.200,0.069,3.341,0.000,12.958,0.000,0.000,24.801
10608,4.195,0.000,3.342,0.000,12.965,0.000,0.000,24.788
10712,4.192,0.000,3.342,0.000,12.965,0.000,0.000,24.796
10816,4.191,0.000,3.342,0.000,12.965,0.000,0.000,24.823
10920,4.189,0.000,3.342,0.000,12.965,0.000,0.000,24.776
11024,4.188,0.000,3.342,0.000,12.965,0.000,0.000,24.814
11128,4.188,0.000,3.342,0.000,12.965,0.000,0.000,24.805
11232,4.187,0.000,3.342,0.000,12.965,0.000,0.000,24.810
11336,4.186,0.000,3.342,0.000,12.965,0.000,0.000,24.795
11440,4.186,0.000,3.342,0.000,12.965,0.000,0.000,24.810
11544,4.185,0.000,3.342,0.000,12.965,0.000,0.000,24.822
11648,4.184,0.000,3.342,0.000,12.965,0.000,0.000,24.871
11752,4.184,0.000,3.342,0.000,12.965,0.000,0.000,24.815
11856,4.183,0.000,3.342,0.000,12.965,0.000,0.000,24.821
11960,4.183,0.000,3.342,0.000,12.965,0.000,0.000,24.828
12064,4.183,0.000,3.342,0.000,12.965,0.000,0.000,24.777
12168,4.182,0.000,3.342,0.000,12.965,0.000,0.000,24.875
12272,4.182,0.000,3.342,0.000,12.965,0.000,0.000,24.834
12376,4.182,0.000,3.342,0.000,12.965,0.000,0.000,24.860
12480,4.181,0.000,3.342,0.000,12.965,0.000,0.000,24.864
12584,4.181,0.000,3.342,0.000,12.965,0.000,0.000,24.855
12688,4.181,0.000,3.342,0.000,12.965,0.000,0.000,24.795
12792,4.180,0.000,3.342,0.000,12.965,0.000,0.000,24.863
12896,4.180,0.000,3.342,0.000,12.965,0.000,0.000,24.840
13000,4.180,0.000,3.342,0.000,12.965,0.000,0.000,24.834
13104,4.179,0.000,3.342,0.000,12.965,0.000,0.000,24.826
13208,4.179,0.000,3.342,0.000,12.965,0.000,0.000,24.845
13312,4.179,0.000,3.342,0.000,12.965,0.000,0.000,24.800
13416,4.179,0.000,3.342,0.000,12.965,0.000,0.000,24.889
13520,4.179,0.000,3.342,0.000,12.965,0.000,0.000,24.866
13624,4.178,0.000,3.342,0.000,12.965,0.000,0.000,25.225
13728,4.178,0.000,3.342,0.000,12.965,0.000,0.000,25.102
13832,4.178,0.000,3.342,0.000,12.965,0.000,0.000,25.011
13936,4.178,0.000,3.342,0.000,12.965,0.000,0.000,24.990
14040,4.178,0.000,3.342,0.000,12.965,0.000,0.000,25.047
14144,4.177,0.000,3.342,0.000,12.965,0.000,0.000,25.062
14247,3.364,-10.047,3.342,0.151,12.965,0.515,-0.003,28.767
14351,3.238,-10.046,3.342,0.441,12.965,1.473,-0.001,36.120
14455,3.139,-10.047,3.342,0.731,12.965,2.399,-0.001,41.049
14559,3.042,-10.048,3.342,1.021,12.965,3.296,-0.001,45.083
14663,2.951,-10.047,3.342,1.312,12.965,4.166,-0.001,48.556
14767,2.859,-10.048,3.342,1.602,12.965,5.009,-0.001,51.688
14871,2.765,-10.048,3.342,1.892,12.965,5.825,-0.001,54.383
14975,2.659,-10.049,3.342,2.183,12.965,6.613,-0.001,56.955
15079,2.547,-10.050,3.342,2.473,12.965,7.369,-0.001,59.592
15183,3.417,0.000,3.342,2.587,12.965,7.657,0.000,59.142
15287,3.431,0.000,3.342,2.587,12.965,7.657,0.000,51.663
15391,3.450,0.000,3.342,2.587,12.965,7.657,0.000,45.083
15495,3.465,0.000,3.342,2.587,12.965,7.657,0.000,39.993
15599,3.473,0.000,3.342,2.587,12.965,7.657,0.000,36.509
15703,3.478,0.000,3.342,2.587,12.965,7.657,0.000,33.896
15807,3.481,0.000,3.342,2.587,12.965,7.657,0.000,31.750
15911,3.483,0.000,3.342,2.587,12.965,7.657,0.000,30.314
16015,3.485,0.000,3.342,2.587,12.965,7.657,0.000,29.159
16119,3.487,0.000,3.342,2.587,12.965,7.657,0.000,28.290
16223,3.488,0.000,3.342,2.587,12.965,7.657,0.000,27.514
16327,3.489,0.000,3.342,2.587,12.965,7.657,0.000,27.032
16431,3.490,0.000,3.342,2.587,12.965,7.657,0.000,26.635
16535,3.491,0.000,3.342,2.587,12.965,7.657,0.000,26.262
16639,3.491,0.000,3.342,2.587,12.965,7.657,0.000,25.976
16743,3.492,0.000,3.342,2.587,12.965,7.657,0.000,25.758
16847,3.492,0.000,3.342,2.587,12.965,7.657,0.000,25.594
16951,3.493,0.000,3.342,2.587,12.965,7.657,0.000,25.439
17055,3.493,0.000,3.342,2.587,12.965,7.657,0.000,25.295
17159,3.494,0.000,3.342,2.587,12.965,7.657,0.000,25.220
17263,3.494,0.000,3.342,2.587,12.965,7.657,0.000,25.148
17367,3.494,0.000,3.342,2.587,12.965,7.657,0.000,25.028
17471,3.495,0.000,3.342,2.587,12.965,7.657,0.000,24.991
17575,3.495,0.000,3.342,2.587,12.965,7.657,0.000,24.962
17679,3.495,0.000,3.342,2.587,12.965,7.657,0.000,24.844
17783,3.496,0.000,3.342,2.587,12.965,7.657,0.000,24.834
17887,3.496,0.000,3.342,2.587,12.965,7.657,0.000,24.804
17991,3.496,0.000,3.342,2.587,12.965,7.657,0.000,24.757
18095,3.496,0.000,3.342,2.587,12.965,7.657,0.000,24.725
18199,3.497,0.000,3.342,2.587,12.965,7.657,0.000,24.730
18303,3.497,0.000,3.342,2.587,12.965,7.657,0.000,24.717
18407,3.497,0.000,3.342,2.587,12.965,7.657,0.000,24.709
18511,3.497,0.000,3.342,2.587,12.965,7.657,0.000,24.683
18615,3.497,0.000,3.342,2.587,12.965,7.657,0.000,24.660
18719,3.497,0.000,3.342,2.587,12.965,7.657,0.000,24.656
18720,3.497,0.000,3.342,2.587,12.965,7.657,0.000,24.656