File: data/T25/3C/6.csv
time_s,voltage_v,current_a,chargecapacity_ah,dischargecapacity_ah,charge_energy_wh,discharge_energy_wh,voltagedot_v_per_s,temp_degc
1,2.998,0.000,0.000,0.000,0.000,0.000,0.000,25.560
103,3.326,1.625,0.019,0.000,0.064,0.001,0.002,25.174
206,3.462,1.625,0.066,0.000,0.222,0.001,0.001,25.783
309,3.536,1.625,0.112,0.000,0.385,0.001,0.001,25.496
412,3.553,1.625,0.159,0.000,0.550,0.001,0.000,25.761
515,3.559,1.625,0.205,0.000,0.715,0.001,0.000,26.026
618,3.570,1.625,0.252,0.000,0.881,0.001,0.000,25.908
721,3.581,1.625,0.298,0.000,1.047,0.001,0.000,25.955
824,3.592,1.625,0.345,0.000,1.214,0.001,0.000,26.100
927,3.603,1.625,0.391,0.000,1.381,0.001,0.000,26.114
1030,3.614,1.625,0.438,0.000,1.549,0.001,0.000,26.145
1133,3.625,1.625,0.484,0.000,1.717,0.001,0.000,26.118
1236,3.636,1.625,0.531,0.000,1.886,0.001,0.000,26.077
1339,3.646,1.625,0.577,0.000,2.055,0.001,0.000,26.043
1442,3.654,1.625,0.624,0.000,2.225,0.001,0.000,26.026
1545,3.662,1.625,0.670,0.000,2.395,0.001,0.000,25.985
1648,3.669,1.625,0.717,0.000,2.566,0.001,0.000,25.959
1751,3.676,1.625,0.763,0.000,2.737,0.001,0.000,25.948
1854,3.684,1.625,0.810,0.000,2.908,0.001,0.000,25.953
1957,3.693,1.625,0.857,0.000,3.079,0.001,0.000,25.969
2060,3.701,1.625,0.903,0.000,3.251,0.001,0.000,25.941
2163,3.710,1.625,0.950,0.000,3.423,0.001,0.000,25.950
2266,3.719,1.625,0.996,0.000,3.596,0.001,0.000,25.993
2369,3.727,1.625,1.043,0.000,3.769,0.001,0.000,25.969
2472,3.736,1.625,1.089,0.000,3.943,0.001,0.000,25.962
2575,3.744,1.625,1.136,0.000,4.117,0.001,0.000,25.999
2678,3.752,1.625,1.182,0.000,4.291,0.001,0.000,26.013
2781,3.761,1.625,1.229,0.000,4.466,0.001,0.000,26.000
2884,3.769,1.625,1.275,0.000,4.641,0.001,0.000,25.989
2987,3.778,1.625,1.322,0.000,4.816,0.001,0.000,26.150
3090,3.788,1.625,1.368,0.000,4.992,0.001,0.000,25.969
3193,3.797,1.625,1.415,0.000,5.169,0.001,0.000,26.172
3296,3.806,1.625,1.461,0.000,5.345,0.001,0.000,26.644
3399,3.816,1.625,1.508,0.000,5.523,0.001,0.000,26.305
3502,3.827,1.625,1.554,0.000,5.700,0.001,0.000,26.291
3605,3.838,1.625,1.601,0.000,5.879,0.001,0.000,26.281
3708,3.850,1.625,1.647,0.000,6.057,0.001,0.000,26.243
3811,3.862,1.625,1.694,0.000,6.237,0.001,0.000,26.233
3914,3.874,1.625,1.740,0.000,6.417,0.001,0.000,26.271
4017,3.887,1.625,1.787,0.000,6.597,0.001,0.000,26.220
4120,3.901,1.625,1.833,0.000,6.778,0.001,0.000,26.281
4223,3.914,1.625,1.880,0.000,6.960,0.001,0.000,26.300
4326,3.928,1.625,1.926,0.000,7.142,0.001,0.000,26.269
4429,3.941,1.625,1.973,0.000,7.325,0.001,0.000,26.260
4532,3.955,1.625,2.019,0.000,7.509,0.001,0.000,26.279
4635,3.969,1.625,2.066,0.000,7.693,0.001,0.000,26.215
4738,3.982,1.625,2.112,0.000,7.878,0.001,0.000,26.301
4841,3.996,1.625,2.159,0.000,8.063,0.001,0.000,26.237
4944,4.010,1.625,2.205,0.000,8.250,0.001,0.000,26.306
5047,4.023,1.625,2.252,0.000,8.436,0.001,0.000,26.243
5150,4.036,1.625,2.298,0.000,8.624,0.001,0.000,26.238
5253,4.050,1.625,2.345,0.000,8.812,0.001,0.000,26.258
5356,4.064,1.625,2.391,0.000,9.000,0.001,0.000,26.286
5459,4.078,1.625,2.438,0.000,9.190,0.001,0.000,26.267
5562,4.092,1.625,2.484,0.000,9.380,0.001,0.000,26.303
5665,4.107,1.625,2.531,0.000,9.570,0.001,0.000,26.320
5768,4.123,1.625,2.577,0.000,9.762,0.001,0.000,26.326
5871,4.139,1.625,2.624,0.000,9.954,0.001,0.000,26.352
5974,4.156,1.625,2.670,0.000,10.147,0.001,0.000,26.348
6077,4.173,1.625,2.717,0.000,10.340,0.001,0.000,26.342
6180,4.190,1.625,2.763,0.000,10.535,0.001,0.000,26.349
6282,4.200,1.544,2.809,0.000,10.727,0.001,0.000,26.395
6385,4.200,1.377,2.851,0.000,10.902,0.001,0.000,26.318
6488,4.200,1.232,2.888,0.000,11.058,0.001,0.000,26.288
6591,4.200,1.108,2.921,0.000,11.199,0.001,0.000,26.106
6694,4.200,1.006,2.951,0.000,11.325,0.001,0.000,26.007
6797,4.200,0.920,2.979,0.000,11.441,0.001,0.000,25.904
6900,4.200,0.843,3.004,0.000,11.547,0.001,0.000,25.793
7003,4.200,0.777,3.027,0.000,11.644,0.001,0.000,25.688
7106,4.200,0.721,3.049,0.000,11.734,0.001,0.000,25.650
7209,4.200,0.674,3.069,0.000,11.818,0.001,0.000,25.624
7312,4.200,0.632,3.087,0.000,11.896,0.001,0.000,25.522
7415,4.200,0.596,3.105,0.000,11.970,0.001,0.000,25.427
7518,4.200,0.563,3.121,0.000,12.039,0.001,0.000,25.356
7621,4.200,0.530,3.137,0.000,12.105,0.001,0.000,25.337
7724,4.200,0.498,3.152,0.000,12.167,0.001,0.000,25.319
7827,4.200,0.467,3.166,0.000,12.225,0.001,0.000,25.283
7930,4.200,0.436,3.178,0.000,12.279,0.001,0.000,25.225
8033,4.200,0.407,3.191,0.000,12.330,0.001,0.000,25.211
8136,4.200,0.379,3.202,0.000,12.377,0.001,0.000,25.194
8239,4.200,0.352,3.212,0.000,12.421,0.001,0.000,25.159
8342,4.200,0.326,3.222,0.000,12.461,0.001,0.000,25.128
8445,4.200,0.301,3.231,0.000,12.499,0.001,0.000,25.069
8548,4.200,0.279,3.239,0.000,12.534,0.001,0.000,25.110
8651,4.200,0.258,3.247,0.000,12.566,0.001,0.000,25.065
8754,4.200,0.238,3.254,0.000,12.596,0.001,0.000,25.049
8857,4.200,0.219,3.260,0.000,12.623,0.001,0.000,25.009
8960,4.200,0.202,3.266,0.000,12.648,0.001,0.000,25.011
9063,4.200,0.187,3.272,0.000,12.672,0.001,0.000,24.978
9166,4.200,0.172,3.277,0.000,12.693,0.001,0.000,24.914
9269,4.200,0.159,3.282,0.000,12.713,0.001,0.000,24.817
9372,4.200,0.146,3.286,0.000,12.731,0.001,0.000,25.366
9475,4.200,0.135,3.290,0.000,12.748,0.001,0.000,24.908
9578,4.200,0.125,3.294,0.000,12.764,0.001,0.000,24.937
9681,4.200,0.116,3.297,0.000,12.778,0.001,0.000,24.954
9784,4.200,0.107,3.301,0.000,12.791,0.001,0.000,24.985
9887,4.200,0.099,3.303,0.000,12.804,0.001,0.000,24.982
9990,4.200,0.092,3.306,0.000,12.815,0.001,0.000,24.967
10093,4.200,0.086,3.309,0.000,12.826,0.001,0.000,24.969
10196,4.200,0.079,3.311,0.000,12.836,0.001,0.000,24.924
10299,4.200,0.074,3.313,0.000,12.845,0.001,0.000,24.955
10402,4.200,0.069,3.315,0.000,12.854,0.001,0.000,24.914
10505,4.194,0.000,3.317,0.000,12.859,0.001,0.000,24.963
10608,4.192,0.000,3.317,0.000,12.859,0.001,0.000,24.925
10711,4.190,0.000,3.317,0.000,12.859,0.001,0.000,24.887
10814,4.190,0.000,3.317,0.000,12.859,0.001,0.000,24.914
10917,4.188,0.000,3.317,0.000,12.859,0.001,0.000,24.864
11020,4.188,0.000,3.317,0.000,12.859,0.001,0.000,24.893
11123,4.187,0.000,3.317,0.000,12.859,0.001,0.000,24.924
11226,4.186,0.000,3.317,0.000,12.859,0.001,0.000,24.848
11329,4.186,0.000,3.317,0.000,12.859,0.001,0.000,24.894
11432,4.185,0.000,3.317,0.000,12.859,0.001,0.000,24.887
11535,4.185,0.000,3.317,0.000,12.859,0.001,0.000,24.906
11638,4.184,0.000,3.317,0.000,12.859,0.001,0.000,24.940
11741,4.183,0.000,3.317,0.000,12.859,0.001,0.000,24.892
11844,4.183,0.000,3.317,0.000,12.859,0.001,0.000,24.874
11947,4.183,0.000,3.317,0.000,12.859,0.001,0.000,24.881
12050,4.182,0.000,3.317,0.000,12.859,0.001,0.000,24.917
12153,4.182,0.000,3.317,0.000,12.859,0.001,0.000,24.855
12256,4.182,0.000,3.317,0.000,12.859,0.001,0.000,24.891
12359,4.181,0.000,3.317,0.000,12.859,0.001,0.000,24.911
12462,4.181,0.000,3.317,0.000,12.859,0.001,0.000,24.853
12565,4.181,0.000,3.317,0.000,12.859,0.001,0.000,24.867
12668,4.180,0.000,3.317,0.000,12.859,0.001,0.000,24.859
12771,4.180,0.000,3.317,0.000,12.859,0.001,0.000,24.885
12874,4.180,0.000,3.317,0.000,12.859,0.001,0.000,24.867
12977,4.180,0.000,3.317,0.000,12.859,0.001,0.000,24.870
13080,4.180,0.000,3.317,0.000,12.859,0.001,0.000,24.896
13183,4.179,0.000,3.317,0.000,12.859,0.001,0.000,24.916
13286,4.179,0.000,3.317,0.000,12.859,0.001,0.000,24.902
13389,4.179,0.000,3.317,0.000,12.859,0.001,0.000,24.941
13492,4.179,0.000,3.317,0.000,12.859,0.001,0.000,24.885
13595,4.178,0.000,3.317,0.000,12.859,0.001,0.000,24.897
13698,4.179,0.000,3.317,0.000,12.859,0.001,0.000,24.897
13801,4.178,0.000,3.317,0.000,12.859,0.001,0.000,24.904
13904,4.178,0.000,3.317,0.000,12.859,0.001,0.000,24.908
14007,4.178,0.000,3.317,0.000,12.859,0.001,0.000,25.018
14109,3.431,-10.049,3.317,0.104,12.859,0.361,-0.002,26.821
14212,3.300,-10.048,3.317,0.391,12.859,1.327,-0.001,33.126
14315,3.186,-10.046,3.317,0.679,12.859,2.260,-0.002,37.699
14418,3.080,-10.046,3.317,0.966,12.859,3.160,-0.001,40.958
14521,2.979,-10.046,3.317,1.254,12.859,4.030,-0.001,43.330
14624,2.878,-10.046,3.317,1.541,12.859,4.872,-0.001,45.291
14727,2.764,-10.046,3.317,1.828,12.859,5.684,-0.001,47.438
14830,2.628,-10.050,3.317,2.116,12.859,6.459,-0.001,49.516
14933,3.401,0.000,3.317,2.336,12.859,7.025,0.003,51.949
15036,3.467,0.000,3.317,2.336,12.859,7.025,0.000,46.885
15139,3.496,0.000,3.317,2.336,12.859,7.025,0.000,40.795
15242,3.515,0.000,3.317,2.336,12.859,7.025,0.000,36.205
15345,3.525,0.000,3.317,2.336,12.859,7.025,0.000,33.007
15448,3.530,0.000,3.317,2.336,12.859,7.025,0.000,30.807
15551,3.534,0.000,3.317,2.336,12.859,7.025,0.000,29.176
15654,3.537,0.000,3.317,2.336,12.859,7.025,0.000,27.955
15757,3.539,0.000,3.317,2.336,12.859,7.025,0.000,27.187
15860,3.540,0.000,3.317,2.336,12.859,7.025,0.000,26.609
15963,3.542,0.000,3.317,2.336,12.859,7.025,0.000,26.167
16066,3.543,0.000,3.317,2.336,12.859,7.025,0.000,25.838
16169,3.544,0.000,3.317,2.336,12.859,7.025,0.000,25.597
16272,3.544,0.000,3.317,2.336,12.859,7.025,0.000,25.425
16375,3.545,0.000,3.317,2.336,12.859,7.025,0.000,25.314
16478,3.545,0.000,3.317,2.336,12.859,7.025,0.000,25.193
16581,3.545,0.000,3.317,2.336,12.859,7.025,0.000,25.174
16684,3.546,0.000,3.317,2.336,12.859,7.025,0.000,25.049
16787,3.546,0.000,3.317,2.336,12.859,7.025,0.000,25.005
16890,3.546,0.000,3.317,2.336,12.859,7.025,0.000,25.025
16993,3.546,0.000,3.317,2.336,12.859,7.025,0.000,24.985
17096,3.547,0.000,3.317,2.336,12.859,7.025,0.000,24.980
17199,3.547,0.000,3.317,2.336,12.859,7.025,0.000,24.952
17302,3.547,0.000,3.317,2.336,12.859,7.025,0.000,24.917
17405,3.547,0.000,3.317,2.336,12.859,7.025,0.000,24.844
17508,3.547,0.000,3.317,2.336,12.859,7.025,0.000,24.931
17611,3.547,0.000,3.317,2.336,12.859,7.025,0.000,24.899
17714,3.548,0.000,3.317,2.336,12.859,7.025,0.000,24.871
17817,3.548,0.000,3.317,2.336,12.859,7.025,0.000,24.858
17920,3.548,0.000,3.317,2.336,12.859,7.025,0.000,24.889
18023,3.548,0.000,3.317,2.336,12.859,7.025,0.000,24.859
18126,3.548,0.000,3.317,2.336,12.859,7.025,0.000,24.857
18229,3.548,0.000,3.317,2.336,12.859,7.025,0.000,24.889
18332,3.548,0.000,3.317,2.336,12.859,7.025,0.000,24.913
18435,3.548,0.000,3.317,2.336,12.859,7.025,0.000,24.862
18509,3.548,0.000,3.317,2.336,12.859,7.025,0.000,24.898