File: data/T35/3C/1.csv
time_s,voltage_v,current_a,chargecapacity_ah,dischargecapacity_ah,charge_energy_wh,discharge_energy_wh,voltagedot_v_per_s,temp_degc
1,4.102,0.000,0.000,0.000,0.000,0.000,0.000,34.811
55,4.102,0.000,0.000,0.000,0.000,0.000,0.000,34.814
108,4.200,1.386,0.020,0.000,0.084,0.001,0.000,34.876
162,4.200,1.233,0.040,0.000,0.166,0.001,0.000,34.954
216,4.200,1.115,0.057,0.000,0.240,0.001,0.000,34.989
270,4.200,1.008,0.073,0.000,0.307,0.001,0.000,35.090
324,4.200,0.905,0.087,0.000,0.367,0.001,0.000,35.119
378,4.200,0.806,0.100,0.000,0.421,0.001,0.000,35.127
432,4.200,0.716,0.112,0.000,0.469,0.001,0.000,35.127
486,4.200,0.631,0.122,0.000,0.511,0.001,0.000,35.096
540,4.200,0.555,0.131,0.000,0.548,0.001,0.000,35.129
594,4.200,0.487,0.138,0.000,0.581,0.001,0.000,35.075
648,4.200,0.427,0.145,0.000,0.610,0.001,0.000,35.024
702,4.200,0.373,0.151,0.000,0.635,0.001,0.000,35.005
756,4.200,0.328,0.156,0.000,0.657,0.001,0.000,35.000
810,4.200,0.290,0.161,0.000,0.676,0.001,0.000,34.983
864,4.200,0.258,0.165,0.000,0.694,0.001,0.000,34.952
918,4.200,0.228,0.169,0.000,0.709,0.001,0.000,34.902
972,4.200,0.205,0.172,0.000,0.723,0.001,0.000,34.917
1026,4.200,0.185,0.175,0.000,0.735,0.001,0.000,34.929
1080,4.200,0.166,0.178,0.000,0.746,0.001,0.000,34.924
1134,4.200,0.150,0.180,0.000,0.756,0.001,0.000,34.967
1188,4.200,0.137,0.182,0.000,0.765,0.001,0.000,34.913
1242,4.200,0.124,0.184,0.000,0.773,0.001,0.000,34.952
1296,4.200,0.113,0.186,0.000,0.780,0.001,0.000,34.882
1350,4.200,0.103,0.187,0.000,0.787,0.001,0.000,34.854
1404,4.200,0.095,0.189,0.000,0.793,0.001,0.000,34.824
1458,4.200,0.087,0.190,0.000,0.799,0.001,0.000,34.904
1512,4.200,0.080,0.192,0.000,0.804,0.001,0.000,34.838
1566,4.200,0.074,0.193,0.000,0.809,0.001,0.000,34.799
1620,4.200,0.068,0.194,0.000,0.814,0.001,0.000,34.856
1674,4.195,0.000,0.194,0.000,0.816,0.001,0.000,34.810
1728,4.194,0.000,0.194,0.000,0.816,0.001,0.000,34.812
1782,4.193,0.000,0.194,0.000,0.816,0.001,0.000,34.815
1836,4.193,0.000,0.194,0.000,0.816,0.001,0.000,34.782
1890,4.192,0.000,0.194,0.000,0.816,0.001,0.000,34.860
1944,4.192,0.000,0.194,0.000,0.816,0.001,0.000,34.832
1998,4.192,0.000,0.194,0.000,0.816,0.001,0.000,34.842
2052,4.191,0.000,0.194,0.000,0.816,0.001,0.000,34.853
2106,4.191,0.000,0.194,0.000,0.816,0.001,0.000,34.894
2160,4.191,0.000,0.194,0.000,0.816,0.001,0.000,34.850
2214,4.191,0.000,0.194,0.000,0.816,0.001,0.000,34.805
2268,4.190,0.000,0.194,0.000,0.816,0.001,0.000,34.822
2322,4.190,0.000,0.194,0.000,0.816,0.001,0.000,34.815
2376,4.190,0.000,0.194,0.000,0.816,0.001,0.000,34.820
2430,4.190,0.000,0.194,0.000,0.816,0.001,0.000,34.855
2484,4.190,0.000,0.194,0.000,0.816,0.001,0.000,34.812
2538,4.190,0.000,0.194,0.000,0.816,0.001,0.000,34.809
2592,4.190,0.000,0.194,0.000,0.816,0.001,0.000,34.794
2646,4.189,0.000,0.194,0.000,0.816,0.001,0.000,34.807
2700,4.189,0.000,0.194,0.000,0.816,0.001,0.000,34.825
2754,4.189,0.000,0.194,0.000,0.816,0.001,0.000,34.819
2808,4.189,0.000,0.194,0.000,0.816,0.001,0.000,34.804
2862,4.189,0.000,0.194,0.000,0.816,0.001,0.000,34.783
2916,4.189,0.000,0.194,0.000,0.816,0.001,0.000,34.816
2970,4.189,0.000,0.194,0.000,0.816,0.001,0.000,34.796
3024,4.189,0.000,0.194,0.000,0.816,0.001,0.000,34.823
3078,4.189,0.000,0.194,0.000,0.816,0.001,0.000,34.792
3132,4.188,0.000,0.194,0.000,0.816,0.001,0.000,34.800
3186,4.188,0.000,0.194,0.000,0.816,0.001,0.000,34.835
3240,4.188,0.000,0.194,0.000,0.816,0.001,0.000,34.820
3294,4.188,0.000,0.194,0.000,0.816,0.001,0.000,34.830
3348,4.188,0.000,0.194,0.000,0.816,0.001,0.000,34.842
3402,4.188,0.000,0.194,0.000,0.816,0.001,0.000,34.838
3456,4.188,0.000,0.194,0.000,0.816,0.001,0.000,34.850
3510,4.188,0.000,0.194,0.000,0.816,0.001,0.000,34.837
3564,4.188,0.000,0.194,0.000,0.816,0.001,0.000,34.822
3618,4.188,0.000,0.194,0.000,0.816,0.001,0.000,34.840
3672,4.188,0.000,0.194,0.000,0.816,0.001,0.000,34.869
3726,4.188,0.000,0.194,0.000,0.816,0.001,0.000,34.790
3780,4.188,0.000,0.194,0.000,0.816,0.001,0.000,34.793
3834,4.187,0.000,0.194,0.000,0.816,0.001,0.000,34.820
3888,4.187,0.000,0.194,0.000,0.816,0.001,0.000,34.844
3942,4.187,0.000,0.194,0.000,0.816,0.001,0.000,34.802
3996,4.187,0.000,0.194,0.000,0.816,0.001,0.000,34.851
4050,4.187,0.000,0.194,0.000,0.816,0.001,0.000,34.882
4104,4.187,0.000,0.194,0.000,0.816,0.001,0.000,34.829
4158,4.187,0.000,0.194,0.000,0.816,0.001,0.000,34.838
4212,4.187,0.000,0.194,0.000,0.816,0.001,0.000,34.845
4266,4.187,0.000,0.194,0.000,0.816,0.001,0.000,34.806
4320,4.187,0.000,0.194,0.000,0.816,0.001,0.000,34.812
4374,4.187,0.000,0.194,0.000,0.816,0.001,0.000,34.844
4428,4.187,0.000,0.194,0.000,0.816,0.001,0.000,34.825
4482,4.187,0.000,0.194,0.000,0.816,0.001,0.000,34.829
4536,4.187,0.000,0.194,0.000,0.816,0.001,0.000,34.852
4590,4.187,0.000,0.194,0.000,0.816,0.001,0.000,34.823
4644,4.187,0.000,0.194,0.000,0.816,0.001,0.000,34.821
4698,4.186,0.000,0.194,0.000,0.816,0.001,0.000,34.831
4752,4.187,0.000,0.194,0.000,0.816,0.001,0.000,34.849
4806,4.186,0.000,0.194,0.000,0.816,0.001,0.000,34.824
4860,4.186,0.000,0.194,0.000,0.816,0.001,0.000,34.828
4914,4.186,0.000,0.194,0.000,0.816,0.001,0.000,34.841
4968,4.186,0.000,0.194,0.000,0.816,0.001,0.000,34.819
5022,4.186,0.000,0.194,0.000,0.816,0.001,0.000,34.829
5076,4.186,0.000,0.194,0.000,0.816,0.001,0.000,34.823
5130,4.186,0.000,0.194,0.000,0.816,0.001,0.000,34.800
5184,4.186,0.000,0.194,0.000,0.816,0.001,0.000,34.779
5238,4.186,0.000,0.194,0.000,0.816,0.001,0.000,34.790
5291,3.474,-10.050,0.194,0.120,0.816,0.424,-0.001,36.803
5345,3.411,-10.049,0.194,0.271,0.816,0.942,-0.001,39.915
5399,3.351,-10.049,0.194,0.422,0.816,1.452,-0.001,42.576
5453,3.291,-10.048,0.194,0.572,0.816,1.953,-0.001,44.720
5507,3.230,-10.048,0.194,0.723,0.816,2.444,-0.001,46.495
5561,3.170,-10.047,0.194,0.874,0.816,2.927,-0.001,47.987
5615,3.112,-10.047,0.194,1.025,0.816,3.400,-0.001,49.485
5669,3.058,-10.047,0.194,1.175,0.816,3.865,-0.001,50.666
5723,3.009,-10.047,0.194,1.326,0.816,4.322,-0.001,51.933
5777,2.963,-10.047,0.194,1.477,0.816,4.772,-0.001,53.124
5831,2.917,-10.047,0.194,1.627,0.816,5.215,-0.001,54.099
5885,2.872,-10.047,0.194,1.778,0.816,5.651,-0.001,55.008
5939,2.825,-10.047,0.194,1.929,0.816,6.080,-0.001,56.222
5993,2.776,-10.047,0.194,2.080,0.816,6.502,-0.001,57.124
6047,2.727,-10.047,0.194,2.230,0.816,6.917,-0.001,57.892
6101,2.676,-10.047,0.194,2.381,0.816,7.324,-0.001,58.874
6155,2.625,-10.047,0.194,2.532,0.816,7.724,-0.001,59.791
6209,2.571,-10.046,0.194,2.682,0.816,8.115,-0.001,61.122
6263,2.510,-10.046,0.194,2.833,0.816,8.498,-0.001,61.948
6316,3.367,0.000,0.194,2.854,0.816,8.550,0.001,60.526
6370,3.376,0.000,0.194,2.854,0.816,8.550,0.000,56.856
6424,3.377,0.000,0.194,2.854,0.816,8.550,0.000,53.147
6478,3.378,0.000,0.194,2.854,0.816,8.550,0.000,50.328
6532,3.380,0.000,0.194,2.854,0.816,8.550,0.000,47.869
6586,3.383,0.000,0.194,2.854,0.816,8.550,0.000,45.907
6640,3.385,0.000,0.194,2.854,0.816,8.550,0.000,44.078
6694,3.387,0.000,0.194,2.854,0.816,8.550,0.000,42.716
6748,3.389,0.000,0.194,2.854,0.816,8.550,0.000,41.524
6802,3.390,0.000,0.194,2.854,0.816,8.550,0.000,40.546
6856,3.391,0.000,0.194,2.854,0.816,8.550,0.000,39.679
6910,3.392,0.000,0.194,2.854,0.816,8.550,0.000,38.923
6964,3.392,0.000,0.194,2.854,0.816,8.550,0.000,38.312
7018,3.393,0.000,0.194,2.854,0.816,8.550,0.000,37.824
7072,3.393,0.000,0.194,2.854,0.816,8.550,0.000,37.406
7126,3.393,0.000,0.194,2.854,0.816,8.550,0.000,37.012
7180,3.393,0.000,0.194,2.854,0.816,8.550,0.000,36.713
7234,3.393,0.000,0.194,2.854,0.816,8.550,0.000,36.467
7288,3.394,0.000,0.194,2.854,0.816,8.550,0.000,36.207
7342,3.394,0.000,0.194,2.854,0.816,8.550,0.000,36.054
7396,3.394,0.000,0.194,2.854,0.816,8.550,0.000,35.844
7450,3.394,0.000,0.194,2.854,0.816,8.550,0.000,35.726
7504,3.394,0.000,0.194,2.854,0.816,8.550,0.000,35.643
7558,3.394,0.000,0.194,2.854,0.816,8.550,0.000,35.498
7612,3.393,0.000,0.194,2.854,0.816,8.550,0.000,35.407
7666,3.394,0.000,0.194,2.854,0.816,8.550,0.000,35.331
7720,3.394,0.000,0.194,2.854,0.816,8.550,0.000,35.243
7774,3.394,0.000,0.194,2.854,0.816,8.550,0.000,35.180
7828,3.394,0.000,0.194,2.854,0.816,8.550,0.000,35.168
7882,3.394,0.000,0.194,2.854,0.816,8.550,0.000,35.113
7936,3.394,0.000,0.194,2.854,0.816,8.550,0.000,35.033
7990,3.394,0.000,0.194,2.854,0.816,8.550,0.000,35.015
8044,3.394,0.000,0.194,2.854,0.816,8.550,0.000,35.022
8098,3.394,0.000,0.194,2.854,0.816,8.550,0.000,34.991
8152,3.394,0.000,0.194,2.854,0.816,8.550,0.000,34.997
8206,3.394,0.000,0.194,2.854,0.816,8.550,0.000,34.985
8260,3.394,0.000,0.194,2.854,0.816,8.550,0.000,34.966
8314,3.394,0.000,0.194,2.854,0.816,8.550,0.000,34.940
8368,3.394,0.000,0.194,2.854,0.816,8.550,0.000,34.910
8422,3.394,0.000,0.194,2.854,0.816,8.550,0.000,34.868
8476,3.394,0.000,0.194,2.854,0.816,8.550,0.000,34.870
8530,3.394,0.000,0.194,2.854,0.816,8.550,0.000,34.846
8584,3.394,0.000,0.194,2.854,0.816,8.550,0.000,34.850
8638,3.394,0.000,0.194,2.854,0.816,8.550,0.000,34.855
8692,3.394,0.000,0.194,2.854,0.816,8.550,0.000,34.880
8746,3.394,0.000,0.194,2.854,0.816,8.550,0.000,34.813
8800,3.394,0.000,0.194,2.854,0.816,8.550,0.000,34.849
8854,3.394,0.000,0.194,2.854,0.816,8.550,0.000,34.864
8908,3.394,0.000,0.194,2.854,0.816,8.550,0.000,34.875
8962,3.394,0.000,0.194,2.854,0.816,8.550,0.000,34.834
9016,3.394,0.000,0.194,2.854,0.816,8.550,0.000,34.809
9070,3.394,0.000,0.194,2.854,0.816,8.550,0.000,34.805
9124,3.394,0.000,0.194,2.854,0.816,8.550,0.000,34.836
9178,3.394,0.000,0.194,2.854,0.816,8.550,0.000,34.812
9232,3.394,0.000,0.194,2.854,0.816,8.550,0.000,34.765
9286,3.394,0.000,0.194,2.854,0.816,8.550,0.000,34.816
9340,3.394,0.000,0.194,2.854,0.816,8.550,0.000,34.826
9394,3.394,0.000,0.194,2.854,0.816,8.550,0.000,34.816
9448,3.394,0.000,0.194,2.854,0.816,8.550,0.000,34.846
9502,3.394,0.000,0.194,2.854,0.816,8.550,0.000,34.792
9556,3.394,0.000,0.194,2.854,0.816,8.550,0.000,34.820
9610,3.394,0.000,0.194,2.854,0.816,8.550,0.000,34.849
9664,3.394,0.000,0.194,2.854,0.816,8.550,0.000,34.821
9718,3.394,0.000,0.194,2.854,0.816,8.550,0.000,34.785
9772,3.394,0.000,0.194,2.854,0.816,8.550,0.000,34.794
9826,3.394,0.000,0.194,2.854,0.816,8.550,0.000,34.852
9870,3.394,0.000,0.194,2.854,0.816,8.550,0.000,34.810