File: data/T35/3C/2.csv
time_s,voltage_v,current_a,chargecapacity_ah,dischargecapacity_ah,charge_energy_wh,discharge_energy_wh,voltagedot_v_per_s,temp_degc
1,3.332,0.000,0.000,0.000,0.000,0.000,0.000,34.524
98,3.513,1.625,0.017,0.000,0.060,0.000,0.000,34.655
196,3.528,1.625,0.061,0.000,0.216,0.000,0.000,34.927
294,3.540,1.625,0.106,0.000,0.372,0.000,0.000,35.130
392,3.552,1.625,0.150,0.000,0.529,0.000,0.000,35.288
490,3.564,1.625,0.194,0.000,0.687,0.000,0.000,35.388
588,3.577,1.625,0.238,0.000,0.844,0.000,0.000,35.473
686,3.590,1.625,0.283,0.000,1.003,0.000,0.000,35.475
784,3.603,1.625,0.327,0.000,1.162,0.000,0.000,35.476
882,3.617,1.625,0.371,0.000,1.322,0.000,0.000,35.485
980,3.628,1.625,0.415,0.000,1.482,0.000,0.000,35.437
1078,3.638,1.625,0.460,0.000,1.643,0.000,0.000,35.410
1176,3.647,1.625,0.504,0.000,1.804,0.000,0.000,35.387
1274,3.655,1.625,0.548,0.000,1.965,0.000,0.000,35.395
1372,3.663,1.625,0.592,0.000,2.127,0.000,0.000,35.438
1470,3.672,1.625,0.637,0.000,2.290,0.000,0.000,35.441
1568,3.680,1.625,0.681,0.000,2.452,0.000,0.000,35.459
1666,3.689,1.625,0.725,0.000,2.615,0.000,0.000,35.508
1764,3.698,1.625,0.769,0.000,2.779,0.000,0.000,35.507
1862,3.707,1.625,0.813,0.000,2.942,0.000,0.000,35.543
1960,3.716,1.625,0.858,0.000,3.107,0.000,0.000,35.565
2058,3.725,1.625,0.902,0.000,3.271,0.000,0.000,35.628
2156,3.734,1.625,0.946,0.000,3.436,0.000,0.000,35.626
2254,3.742,1.625,0.990,0.000,3.601,0.000,0.000,35.663
2352,3.750,1.625,1.035,0.000,3.767,0.000,0.000,35.683
2450,3.759,1.625,1.079,0.000,3.933,0.000,0.000,35.738
2548,3.767,1.625,1.123,0.000,4.100,0.000,0.000,35.745
2646,3.775,1.625,1.167,0.000,4.267,0.000,0.000,35.743
2744,3.783,1.625,1.212,0.000,4.434,0.000,0.000,35.782
2842,3.792,1.625,1.256,0.000,4.601,0.000,0.000,35.756
2940,3.801,1.625,1.300,0.000,4.769,0.000,0.000,35.714
3038,3.810,1.625,1.344,0.000,4.938,0.000,0.000,35.790
3136,3.820,1.625,1.389,0.000,5.106,0.000,0.000,35.790
3234,3.830,1.625,1.433,0.000,5.276,0.000,0.000,35.815
3332,3.841,1.625,1.477,0.000,5.445,0.000,0.000,35.799
3430,3.852,1.625,1.521,0.000,5.616,0.000,0.000,35.793
3528,3.864,1.625,1.566,0.000,5.786,0.000,0.000,35.813
3626,3.876,1.625,1.610,0.000,5.957,0.000,0.000,35.808
3724,3.888,1.625,1.654,0.000,6.129,0.000,0.000,35.809
3822,3.900,1.625,1.698,0.000,6.301,0.000,0.000,35.773
3920,3.913,1.625,1.742,0.000,6.474,0.000,0.000,35.824
4018,3.925,1.625,1.787,0.000,6.648,0.000,0.000,35.796
4116,3.938,1.625,1.831,0.000,6.822,0.000,0.000,35.794
4214,3.951,1.625,1.875,0.000,6.996,0.000,0.000,35.799
4312,3.963,1.625,1.919,0.000,7.171,0.000,0.000,35.752
4410,3.976,1.625,1.964,0.000,7.347,0.000,0.000,35.748
4508,3.988,1.625,2.008,0.000,7.523,0.000,0.000,35.716
4606,4.001,1.625,2.052,0.000,7.700,0.000,0.000,35.732
4704,4.013,1.625,2.096,0.000,7.877,0.000,0.000,35.704
4802,4.025,1.625,2.141,0.000,8.055,0.000,0.000,35.687
4900,4.038,1.625,2.185,0.000,8.233,0.000,0.000,35.732
4998,4.050,1.625,2.229,0.000,8.412,0.000,0.000,35.760
5096,4.063,1.625,2.273,0.000,8.591,0.000,0.000,35.702
5194,4.077,1.625,2.318,0.000,8.771,0.000,0.000,35.737
5292,4.091,1.625,2.362,0.000,8.952,0.000,0.000,35.744
5390,4.106,1.625,2.406,0.000,9.133,0.000,0.000,35.725
5488,4.121,1.625,2.450,0.000,9.315,0.000,0.000,35.772
5586,4.138,1.625,2.495,0.000,9.498,0.000,0.000,35.771
5684,4.155,1.625,2.539,0.000,9.682,0.000,0.000,35.786
5782,4.173,1.625,2.583,0.000,9.866,0.000,0.000,35.838
5880,4.191,1.625,2.627,0.000,10.051,0.000,0.000,35.833
5978,4.200,1.516,2.671,0.000,10.233,0.000,0.000,35.852
6076,4.200,1.359,2.710,0.000,10.396,0.000,0.000,35.864
6174,4.200,1.233,2.745,0.000,10.544,0.000,0.000,35.790
6272,4.200,1.126,2.777,0.000,10.679,0.000,0.000,35.713
6370,4.200,1.034,2.806,0.000,10.802,0.000,0.000,35.574
6468,4.200,0.954,2.833,0.000,10.916,0.000,0.000,35.477
6566,4.200,0.882,2.858,0.000,11.021,0.000,0.000,35.399
6664,4.200,0.820,2.881,0.000,11.118,0.000,0.000,35.325
6762,4.200,0.760,2.903,0.000,11.208,0.000,0.000,35.332
6860,4.200,0.706,2.923,0.000,11.292,0.000,0.000,35.213
6958,4.200,0.654,2.941,0.000,11.370,0.000,0.000,35.127
7056,4.200,0.605,2.959,0.000,11.442,0.000,0.000,35.140
7154,4.200,0.558,2.974,0.000,11.508,0.000,0.000,35.016
7252,4.200,0.513,2.989,0.000,11.569,0.000,0.000,34.992
7350,4.200,0.472,3.002,0.000,11.626,0.000,0.000,34.961
7448,4.200,0.432,3.015,0.000,11.677,0.000,0.000,34.901
7546,4.200,0.396,3.026,0.000,11.725,0.000,0.000,34.892
7644,4.200,0.362,3.036,0.000,11.768,0.000,0.000,34.865
7742,4.200,0.330,3.046,0.000,11.807,0.000,0.000,34.807
7840,4.200,0.300,3.054,0.000,11.843,0.000,0.000,34.781
7938,4.200,0.272,3.062,0.000,11.876,0.000,0.000,34.738
8036,4.200,0.247,3.069,0.000,11.906,0.000,0.000,34.795
8134,4.200,0.225,3.075,0.000,11.933,0.000,0.000,34.728
8232,4.200,0.203,3.081,0.000,11.957,0.000,0.000,34.715
8330,4.200,0.185,3.086,0.000,11.979,0.000,0.000,34.706
8428,4.200,0.167,3.091,0.000,11.999,0.000,0.000,34.727
8526,4.200,0.152,3.096,0.000,12.017,0.000,0.000,34.744
8624,4.200,0.138,3.100,0.000,12.034,0.000,0.000,34.698
8722,4.200,0.126,3.103,0.000,12.049,0.000,0.000,34.677
8820,4.200,0.114,3.106,0.000,12.063,0.000,0.000,34.708
8918,4.200,0.104,3.109,0.000,12.075,0.000,0.000,34.681
9016,4.200,0.095,3.112,0.000,12.087,0.000,0.000,34.684
9114,4.200,0.087,3.115,0.000,12.097,0.000,0.000,34.632
9212,4.200,0.080,3.117,0.000,12.107,0.000,0.000,34.664
9310,4.200,0.073,3.119,0.000,12.115,0.000,0.000,34.663
9408,4.200,0.067,3.121,0.000,12.123,0.000,0.000,34.661
9506,4.193,0.000,3.121,0.000,12.125,0.000,0.000,34.656
9604,4.192,0.000,3.121,0.000,12.125,0.000,0.000,34.666
9702,4.191,0.000,3.121,0.000,12.125,0.000,0.000,34.665
9800,4.190,0.000,3.121,0.000,12.125,0.000,0.000,34.648
9898,4.189,0.000,3.121,0.000,12.125,0.000,0.000,34.661
9996,4.189,0.000,3.121,0.000,12.125,0.000,0.000,34.635
10094,4.188,0.000,3.121,0.000,12.125,0.000,0.000,34.633
10192,4.188,0.000,3.121,0.000,12.125,0.000,0.000,34.647
10290,4.187,0.000,3.121,0.000,12.125,0.000,0.000,34.622
10388,4.187,0.000,3.121,0.000,12.125,0.000,0.000,34.629
10486,4.186,0.000,3.121,0.000,12.125,0.000,0.000,34.631
10584,4.186,0.000,3.121,0.000,12.125,0.000,0.000,34.676
10682,4.186,0.000,3.121,0.000,12.125,0.000,0.000,34.674
10780,4.185,0.000,3.121,0.000,12.125,0.000,0.000,34.663
10878,4.185,0.000,3.121,0.000,12.125,0.000,0.000,34.641
10976,4.185,0.000,3.121,0.000,12.125,0.000,0.000,34.638
11074,4.185,0.000,3.121,0.000,12.125,0.000,0.000,34.644
11172,4.184,0.000,3.121,0.000,12.125,0.000,0.000,34.629
11270,4.184,0.000,3.121,0.000,12.125,0.000,0.000,34.654
11368,4.184,0.000,3.121,0.000,12.125,0.000,0.000,34.649
11466,4.184,0.000,3.121,0.000,12.125,0.000,0.000,34.637
11564,4.184,0.000,3.121,0.000,12.125,0.000,0.000,34.676
11662,4.183,0.000,3.121,0.000,12.125,0.000,0.000,34.647
11760,4.183,0.000,3.121,0.000,12.125,0.000,0.000,34.663
11858,4.183,0.000,3.121,0.000,12.125,0.000,0.000,34.669
11956,4.183,0.000,3.121,0.000,12.125,0.000,0.000,34.645
12054,4.183,0.000,3.121,0.000,12.125,0.000,0.000,34.677
12152,4.183,0.000,3.121,0.000,12.125,0.000,0.000,34.643
12250,4.182,0.000,3.121,0.000,12.125,0.000,0.000,34.625
12348,4.182,0.000,3.121,0.000,12.125,0.000,0.000,34.668
12446,4.182,0.000,3.121,0.000,12.125,0.000,0.000,34.673
12544,4.182,0.000,3.121,0.000,12.125,0.000,0.000,34.693
12642,4.182,0.000,3.121,0.000,12.125,0.000,0.000,34.635
12740,4.182,0.000,3.121,0.000,12.125,0.000,0.000,34.701
12838,4.182,0.000,3.121,0.000,12.125,0.000,0.000,34.658
12936,4.182,0.000,3.121,0.000,12.125,0.000,0.000,34.657
13033,4.181,0.000,3.121,0.000,12.125,0.000,-0.001,34.664
13131,3.318,-10.050,3.121,0.274,12.125,0.923,-0.001,40.513
13229,3.230,-10.048,3.121,0.547,12.125,1.819,-0.001,45.345
13327,3.131,-10.048,3.121,0.821,12.125,2.689,-0.001,48.614
13425,3.034,-10.047,3.121,1.094,12.125,3.532,-0.001,51.278
13523,2.946,-10.048,3.121,1.368,12.125,4.350,-0.001,53.381
13621,2.867,-10.047,3.121,1.641,12.125,5.145,-0.001,55.451
13719,2.790,-10.048,3.121,1.915,12.125,5.918,-0.001,57.093
13817,2.709,-10.047,3.121,2.188,12.125,6.670,-0.001,58.604
13915,2.624,-10.047,3.121,2.462,12.125,7.400,-0.001,60.323
14013,2.532,-10.047,3.121,2.735,12.125,8.105,-0.001,61.914
14111,3.370,0.000,3.121,2.821,12.125,8.322,0.000,58.469
14209,3.378,0.000,3.121,2.821,12.125,8.322,0.000,52.118
14307,3.385,0.000,3.121,2.821,12.125,8.322,0.000,47.479
14405,3.393,0.000,3.121,2.821,12.125,8.322,0.000,44.082
14503,3.398,0.000,3.121,2.821,12.125,8.322,0.000,41.612
14601,3.401,0.000,3.121,2.821,12.125,8.322,0.000,39.893
14699,3.402,0.000,3.121,2.821,12.125,8.322,0.000,38.597
14797,3.403,0.000,3.121,2.821,12.125,8.322,0.000,37.541
14895,3.404,0.000,3.121,2.821,12.125,8.322,0.000,36.870
14993,3.405,0.000,3.121,2.821,12.125,8.322,0.000,36.341
15091,3.405,0.000,3.121,2.821,12.125,8.322,0.000,35.939
15189,3.405,0.000,3.121,2.821,12.125,8.322,0.000,35.683
15287,3.405,0.000,3.121,2.821,12.125,8.322,0.000,35.421
15385,3.405,0.000,3.121,2.821,12.125,8.322,0.000,35.258
15483,3.406,0.000,3.121,2.821,12.125,8.322,0.000,35.162
15581,3.406,0.000,3.121,2.821,12.125,8.322,0.000,35.010
15679,3.406,0.000,3.121,2.821,12.125,8.322,0.000,34.918
15777,3.406,0.000,3.121,2.821,12.125,8.322,0.000,34.886
15875,3.406,0.000,3.121,2.821,12.125,8.322,0.000,34.863
15973,3.406,0.000,3.121,2.821,12.125,8.322,0.000,34.822
16071,3.406,0.000,3.121,2.821,12.125,8.322,0.000,34.756
16169,3.406,0.000,3.121,2.821,12.125,8.322,0.000,34.740
16267,3.406,0.000,3.121,2.821,12.125,8.322,0.000,34.767
16365,3.406,0.000,3.121,2.821,12.125,8.322,0.000,34.800
16463,3.406,0.000,3.121,2.821,12.125,8.322,0.000,34.733
16561,3.406,0.000,3.121,2.821,12.125,8.322,0.000,34.732
16659,3.406,0.000,3.121,2.821,12.125,8.322,0.000,34.702
16757,3.406,0.000,3.121,2.821,12.125,8.322,0.000,34.699
16855,3.406,0.000,3.121,2.821,12.125,8.322,0.000,34.701
16953,3.406,0.000,3.121,2.821,12.125,8.322,0.000,34.682
17051,3.406,0.000,3.121,2.821,12.125,8.322,0.000,34.699
17149,3.406,0.000,3.121,2.821,12.125,8.322,0.000,34.723
17247,3.406,0.000,3.121,2.821,12.125,8.322,0.000,34.676
17345,3.406,0.000,3.121,2.821,12.125,8.322,0.000,34.696
17443,3.406,0.000,3.121,2.821,12.125,8.322,0.000,34.707
17541,3.406,0.000,3.121,2.821,12.125,8.322,0.000,34.695
17639,3.406,0.000,3.121,2.821,12.125,8.322,0.000,34.660
17644,3.406,0.000,3.121,2.821,12.125,8.322,0.000,34.661