File: data/T35/3C/4.csv
time_s,voltage_v,current_a,chargecapacity_ah,dischargecapacity_ah,charge_energy_wh,discharge_energy_wh,voltagedot_v_per_s,temp_degc
1,4.076,0.000,0.000,0.000,0.000,0.000,0.000,34.618
60,4.294,1.624,0.000,0.000,0.000,0.000,-0.003,34.647
121,4.200,0.798,0.014,0.000,0.060,0.000,0.000,34.680
182,4.200,0.763,0.027,0.000,0.115,0.000,0.000,34.753
243,4.200,0.736,0.040,0.000,0.168,0.000,0.000,34.794
304,4.200,0.709,0.052,0.000,0.220,0.000,0.000,34.834
365,4.200,0.684,0.064,0.000,0.269,0.000,0.000,34.797
426,4.200,0.663,0.076,0.000,0.317,0.000,0.000,34.832
487,4.200,0.640,0.087,0.000,0.364,0.000,0.000,34.874
548,4.200,0.617,0.097,0.000,0.408,0.000,0.000,34.847
609,4.200,0.595,0.107,0.000,0.451,0.000,0.000,34.832
670,4.200,0.574,0.117,0.000,0.493,0.000,0.000,34.825
731,4.200,0.553,0.127,0.000,0.533,0.000,0.000,34.853
792,4.200,0.532,0.136,0.000,0.572,0.000,0.000,34.848
853,4.200,0.509,0.145,0.000,0.609,0.000,0.000,34.852
914,4.200,0.487,0.153,0.000,0.644,0.000,0.000,34.872
975,4.200,0.466,0.161,0.000,0.678,0.000,0.000,34.855
1036,4.200,0.446,0.169,0.000,0.710,0.000,0.000,34.824
1097,4.200,0.425,0.177,0.000,0.741,0.000,0.000,34.843
1158,4.200,0.404,0.184,0.000,0.771,0.000,0.000,34.818
1219,4.200,0.384,0.190,0.000,0.799,0.000,0.000,34.807
1280,4.200,0.365,0.197,0.000,0.826,0.000,0.000,34.843
1341,4.200,0.346,0.203,0.000,0.851,0.000,0.000,34.797
1402,4.200,0.327,0.208,0.000,0.875,0.000,0.000,34.830
1463,4.200,0.309,0.214,0.000,0.897,0.000,0.000,34.800
1524,4.200,0.291,0.219,0.000,0.919,0.000,0.000,34.780
1585,4.200,0.274,0.224,0.000,0.939,0.000,0.000,34.790
1646,4.200,0.258,0.228,0.000,0.958,0.000,0.000,34.810
1707,4.200,0.243,0.232,0.000,0.976,0.000,0.000,34.765
1768,4.200,0.228,0.236,0.000,0.992,0.000,0.000,34.776
1829,4.200,0.214,0.240,0.000,1.008,0.000,0.000,34.733
1890,4.200,0.202,0.244,0.000,1.023,0.000,0.000,34.791
1951,4.200,0.189,0.247,0.000,1.037,0.000,0.000,34.754
2012,4.200,0.178,0.250,0.000,1.050,0.000,0.000,34.769
2073,4.200,0.167,0.253,0.000,1.062,0.000,0.000,34.767
2134,4.200,0.157,0.256,0.000,1.074,0.000,0.000,34.726
2195,4.200,0.148,0.258,0.000,1.085,0.000,0.000,34.762
2256,4.200,0.140,0.261,0.000,1.095,0.000,0.000,34.716
2317,4.200,0.132,0.263,0.000,1.104,0.000,0.000,34.760
2378,4.200,0.124,0.265,0.000,1.114,0.000,0.000,34.702
2439,4.200,0.117,0.267,0.000,1.122,0.000,0.000,34.724
2500,4.200,0.111,0.269,0.000,1.130,0.000,0.000,34.707
2561,4.200,0.105,0.271,0.000,1.138,0.000,0.000,34.721
2622,4.200,0.099,0.273,0.000,1.145,0.000,0.000,34.693
2683,4.200,0.093,0.274,0.000,1.152,0.000,0.000,34.691
2744,4.200,0.088,0.276,0.000,1.158,0.000,0.000,34.732
2805,4.200,0.084,0.277,0.000,1.164,0.000,0.000,34.727
2866,4.200,0.079,0.279,0.000,1.170,0.000,0.000,34.717
2927,4.200,0.075,0.280,0.000,1.176,0.000,0.000,34.684
2988,4.200,0.071,0.281,0.000,1.181,0.000,0.000,34.703
3049,4.200,0.068,0.282,0.000,1.186,0.000,0.000,34.712
3109,4.190,0.000,0.283,0.000,1.190,0.000,0.000,34.691
3170,4.189,0.000,0.283,0.000,1.190,0.000,0.000,34.691
3231,4.188,0.000,0.283,0.000,1.190,0.000,0.000,34.668
3292,4.187,0.000,0.283,0.000,1.190,0.000,0.000,34.650
3353,4.187,0.000,0.283,0.000,1.190,0.000,0.000,34.720
3414,4.187,0.000,0.283,0.000,1.190,0.000,0.000,34.695
3475,4.186,0.000,0.283,0.000,1.190,0.000,0.000,34.689
3536,4.186,0.000,0.283,0.000,1.190,0.000,0.000,34.726
3597,4.186,0.000,0.283,0.000,1.190,0.000,0.000,34.717
3658,4.186,0.000,0.283,0.000,1.190,0.000,0.000,34.641
3719,4.186,0.000,0.283,0.000,1.190,0.000,0.000,34.659
3780,4.185,0.000,0.283,0.000,1.190,0.000,0.000,34.672
3841,4.185,0.000,0.283,0.000,1.190,0.000,0.000,34.657
3902,4.185,0.000,0.283,0.000,1.190,0.000,0.000,34.702
3963,4.185,0.000,0.283,0.000,1.190,0.000,0.000,34.686
4024,4.185,0.000,0.283,0.000,1.190,0.000,0.000,34.712
4085,4.185,0.000,0.283,0.000,1.190,0.000,0.000,34.707
4146,4.185,0.000,0.283,0.000,1.190,0.000,0.000,34.664
4207,4.184,0.000,0.283,0.000,1.190,0.000,0.000,34.677
4268,4.184,0.000,0.283,0.000,1.190,0.000,0.000,34.705
4329,4.184,0.000,0.283,0.000,1.190,0.000,0.000,34.645
4390,4.184,0.000,0.283,0.000,1.190,0.000,0.000,34.636
4451,4.184,0.000,0.283,0.000,1.190,0.000,0.000,34.673
4512,4.184,0.000,0.283,0.000,1.190,0.000,0.000,34.675
4573,4.184,0.000,0.283,0.000,1.190,0.000,0.000,34.653
4634,4.184,0.000,0.283,0.000,1.190,0.000,0.000,34.680
4695,4.183,0.000,0.283,0.000,1.190,0.000,0.000,34.682
4756,4.183,0.000,0.283,0.000,1.190,0.000,0.000,34.657
4817,4.183,0.000,0.283,0.000,1.190,0.000,0.000,34.664
4878,4.183,0.000,0.283,0.000,1.190,0.000,0.000,34.685
4939,4.183,0.000,0.283,0.000,1.190,0.000,0.000,34.712
5000,4.183,0.000,0.283,0.000,1.190,0.000,0.000,34.649
5061,4.183,0.000,0.283,0.000,1.190,0.000,0.000,34.672
5122,4.183,0.000,0.283,0.000,1.190,0.000,0.000,34.684
5183,4.183,0.000,0.283,0.000,1.190,0.000,0.000,34.624
5244,4.183,0.000,0.283,0.000,1.190,0.000,0.000,34.643
5305,4.183,0.000,0.283,0.000,1.190,0.000,0.000,34.638
5366,4.182,0.000,0.283,0.000,1.190,0.000,0.000,34.643
5427,4.182,0.000,0.283,0.000,1.190,0.000,0.000,34.681
5488,4.182,0.000,0.283,0.000,1.190,0.000,0.000,34.611
5549,4.182,0.000,0.283,0.000,1.190,0.000,0.000,34.623
5610,4.182,0.000,0.283,0.000,1.190,0.000,0.000,34.646
5671,4.182,0.000,0.283,0.000,1.190,0.000,0.000,34.621
5732,4.182,0.000,0.283,0.000,1.190,0.000,0.000,34.645
5793,4.182,0.000,0.283,0.000,1.190,0.000,0.000,34.626
5854,4.182,0.000,0.283,0.000,1.190,0.000,0.000,34.604
5915,4.182,0.000,0.283,0.000,1.190,0.000,0.000,34.692
5976,4.182,0.000,0.283,0.000,1.190,0.000,0.000,34.572
6037,4.182,0.000,0.283,0.000,1.190,0.000,0.000,34.615
6098,4.182,0.000,0.283,0.000,1.190,0.000,0.000,34.622
6159,4.182,0.000,0.283,0.000,1.190,0.000,0.000,34.669
6220,4.182,0.000,0.283,0.000,1.190,0.000,0.000,34.619
6281,4.181,0.000,0.283,0.000,1.190,0.000,0.000,34.611
6342,4.182,0.000,0.283,0.000,1.190,0.000,0.000,34.589
6403,4.181,0.000,0.283,0.000,1.190,0.000,0.000,34.576
6464,4.181,0.000,0.283,0.000,1.190,0.000,0.000,34.606
6525,4.181,0.000,0.283,0.000,1.190,0.000,0.000,34.552
6586,4.181,0.000,0.283,0.000,1.190,0.000,0.000,34.624
6647,4.181,0.000,0.283,0.000,1.190,0.000,0.000,34.627
6707,3.359,-10.050,0.283,0.028,1.190,0.094,-0.004,34.874
6768,3.256,-10.049,0.283,0.198,1.190,0.656,-0.001,38.423
6829,3.177,-10.049,0.283,0.368,1.190,1.204,-0.001,41.866
6890,3.099,-10.049,0.283,0.539,1.190,1.738,-0.002,44.624
6951,3.023,-10.049,0.283,0.709,1.190,2.259,0.000,47.072
7012,2.959,-10.050,0.283,0.879,1.190,2.768,-0.001,49.074
7073,2.896,-10.050,0.283,1.050,1.190,3.267,-0.001,50.962
7134,2.837,-10.050,0.283,1.220,1.190,3.755,-0.001,52.632
7195,2.785,-10.051,0.283,1.390,1.190,4.233,-0.001,54.364
7256,2.738,-10.050,0.283,1.560,1.190,4.704,-0.001,55.731
7317,2.691,-10.051,0.283,1.731,1.190,5.166,-0.001,57.159
7378,2.642,-10.051,0.283,1.901,1.190,5.620,-0.001,58.313
7439,2.593,-10.052,0.283,2.071,1.190,6.066,0.000,59.379
7500,2.543,-10.052,0.283,2.242,1.190,6.503,-0.001,60.795
7561,3.389,0.000,0.283,2.377,1.190,6.844,0.005,61.574
7622,3.452,0.000,0.283,2.377,1.190,6.844,0.000,58.309
7683,3.469,0.000,0.283,2.377,1.190,6.844,0.000,54.775
7744,3.491,0.000,0.283,2.377,1.190,6.844,0.000,51.618
7805,3.505,0.000,0.283,2.377,1.190,6.844,0.000,48.992
7866,3.513,0.000,0.283,2.377,1.190,6.844,0.000,46.711
7927,3.519,0.000,0.283,2.377,1.190,6.844,0.000,44.777
7988,3.523,0.000,0.283,2.377,1.190,6.844,0.000,43.193
8049,3.527,0.000,0.283,2.377,1.190,6.844,0.000,41.957
8110,3.529,0.000,0.283,2.377,1.190,6.844,0.000,40.828
8171,3.531,0.000,0.283,2.377,1.190,6.844,0.000,39.919
8232,3.532,0.000,0.283,2.377,1.190,6.844,0.000,39.142
8293,3.533,0.000,0.283,2.377,1.190,6.844,0.000,38.518
8354,3.534,0.000,0.283,2.377,1.190,6.844,0.000,37.953
8415,3.535,0.000,0.283,2.377,1.190,6.844,0.000,37.485
8476,3.535,0.000,0.283,2.377,1.190,6.844,0.000,37.114
8537,3.536,0.000,0.283,2.377,1.190,6.844,0.000,36.776
8598,3.536,0.000,0.283,2.377,1.190,6.844,0.000,36.489
8659,3.537,0.000,0.283,2.377,1.190,6.844,0.000,36.274
8720,3.537,0.000,0.283,2.377,1.190,6.844,0.000,36.029
8781,3.538,0.000,0.283,2.377,1.190,6.844,0.000,35.817
8842,3.538,0.000,0.283,2.377,1.190,6.844,0.000,35.701
8903,3.538,0.000,0.283,2.377,1.190,6.844,0.000,35.534
8964,3.538,0.000,0.283,2.377,1.190,6.844,0.000,35.452
9025,3.539,0.000,0.283,2.377,1.190,6.844,0.000,35.354
9086,3.539,0.000,0.283,2.377,1.190,6.844,0.000,35.232
9147,3.539,0.000,0.283,2.377,1.190,6.844,0.000,35.150
9208,3.539,0.000,0.283,2.377,1.190,6.844,0.000,35.068
9269,3.539,0.000,0.283,2.377,1.190,6.844,0.000,35.059
9330,3.539,0.000,0.283,2.377,1.190,6.844,0.000,34.992
9391,3.539,0.000,0.283,2.377,1.190,6.844,0.000,34.955
9452,3.540,0.000,0.283,2.377,1.190,6.844,0.000,34.930
9513,3.540,0.000,0.283,2.377,1.190,6.844,0.000,34.908
9574,3.540,0.000,0.283,2.377,1.190,6.844,0.000,34.846
9635,3.540,0.000,0.283,2.377,1.190,6.844,0.000,34.796
9696,3.540,0.000,0.283,2.377,1.190,6.844,0.000,34.794
9757,3.540,0.000,0.283,2.377,1.190,6.844,0.000,34.811
9818,3.540,0.000,0.283,2.377,1.190,6.844,0.000,34.827
9879,3.540,0.000,0.283,2.377,1.190,6.844,0.000,34.791
9940,3.540,0.000,0.283,2.377,1.190,6.844,0.000,34.781
10001,3.540,0.000,0.283,2.377,1.190,6.844,0.000,34.730
10062,3.541,0.000,0.283,2.377,1.190,6.844,0.000,34.676
10123,3.541,0.000,0.283,2.377,1.190,6.844,0.000,34.733
10184,3.541,0.000,0.283,2.377,1.190,6.844,0.000,34.745
10245,3.541,0.000,0.283,2.377,1.190,6.844,0.000,34.762
10306,3.541,0.000,0.283,2.377,1.190,6.844,0.000,34.705
10367,3.541,0.000,0.283,2.377,1.190,6.844,0.000,34.730
10428,3.541,0.000,0.283,2.377,1.190,6.844,0.000,34.750
10489,3.541,0.000,0.283,2.377,1.190,6.844,0.000,34.685
10550,3.541,0.000,0.283,2.377,1.190,6.844,0.000,34.680
10611,3.541,0.000,0.283,2.377,1.190,6.844,0.000,34.721
10672,3.541,0.000,0.283,2.377,1.190,6.844,0.000,34.674
10733,3.541,0.000,0.283,2.377,1.190,6.844,0.000,34.684
10794,3.541,0.000,0.283,2.377,1.190,6.844,0.000,34.665
10855,3.541,0.000,0.283,2.377,1.190,6.844,0.000,34.673
10916,3.541,0.000,0.283,2.377,1.190,6.844,0.000,34.647
10977,3.542,0.000,0.283,2.377,1.190,6.844,0.000,34.680
11038,3.541,0.000,0.283,2.377,1.190,6.844,0.000,34.673
11099,3.542,0.000,0.283,2.377,1.190,6.844,0.000,34.622
11149,3.542,0.000,0.283,2.377,1.190,6.844,0.000,34.682