File: data/T35/3C/5.csv
time_s,voltage_v,current_a,chargecapacity_ah,dischargecapacity_ah,charge_energy_wh,discharge_energy_wh,voltagedot_v_per_s,temp_degc
1,3.207,0.000,0.000,0.000,0.000,0.000,0.000,33.648
99,3.446,1.625,0.018,0.000,0.060,0.000,0.001,33.646
198,3.514,1.625,0.062,0.000,0.216,0.000,0.000,33.754
297,3.523,1.625,0.107,0.000,0.373,0.000,0.000,34.398
396,3.530,1.625,0.152,0.000,0.531,0.000,0.000,34.776
495,3.539,1.625,0.196,0.000,0.689,0.000,0.000,35.043
594,3.548,1.625,0.241,0.000,0.847,0.000,0.000,35.262
693,3.558,1.625,0.286,0.000,1.006,0.000,0.000,35.336
792,3.569,1.625,0.330,0.000,1.165,0.000,0.000,35.499
891,3.580,1.625,0.375,0.000,1.325,0.000,0.000,35.532
990,3.591,1.625,0.420,0.000,1.485,0.000,0.000,35.563
1089,3.604,1.625,0.465,0.000,1.646,0.000,0.000,35.561
1188,3.616,1.625,0.509,0.000,1.807,0.000,0.000,35.536
1287,3.627,1.625,0.554,0.000,1.969,0.000,0.000,35.531
1386,3.636,1.625,0.599,0.000,2.132,0.000,0.000,35.512
1485,3.644,1.625,0.643,0.000,2.294,0.000,0.000,35.530
1584,3.652,1.625,0.688,0.000,2.457,0.000,0.000,35.488
1683,3.660,1.625,0.733,0.000,2.621,0.000,0.000,35.553
1782,3.668,1.625,0.777,0.000,2.784,0.000,0.000,35.580
1881,3.677,1.625,0.822,0.000,2.949,0.000,0.000,35.575
1980,3.685,1.625,0.867,0.000,3.113,0.000,0.000,35.602
2079,3.694,1.625,0.911,0.000,3.278,0.000,0.000,35.609
2178,3.703,1.625,0.956,0.000,3.443,0.000,0.000,35.674
2277,3.712,1.625,1.001,0.000,3.609,0.000,0.000,35.677
2376,3.721,1.625,1.046,0.000,3.775,0.000,0.000,35.653
2475,3.730,1.625,1.090,0.000,3.942,0.000,0.000,35.731
2574,3.738,1.625,1.135,0.000,4.108,0.000,0.000,35.787
2673,3.747,1.625,1.180,0.000,4.276,0.000,0.000,35.803
2772,3.754,1.625,1.224,0.000,4.443,0.000,0.000,35.802
2871,3.762,1.625,1.269,0.000,4.611,0.000,0.000,35.860
2970,3.771,1.625,1.314,0.000,4.780,0.000,0.000,35.873
3069,3.779,1.625,1.358,0.000,4.948,0.000,0.000,35.887
3168,3.788,1.625,1.403,0.000,5.117,0.000,0.000,35.872
3267,3.797,1.625,1.448,0.000,5.287,0.000,0.000,35.937
3366,3.807,1.625,1.492,0.000,5.457,0.000,0.000,35.923
3465,3.817,1.625,1.537,0.000,5.627,0.000,0.000,35.854
3564,3.827,1.625,1.582,0.000,5.798,0.000,0.000,35.848
3663,3.838,1.625,1.626,0.000,5.969,0.000,0.000,35.865
3762,3.850,1.625,1.671,0.000,6.141,0.000,0.000,35.898
3861,3.861,1.625,1.716,0.000,6.313,0.000,0.000,35.846
3960,3.874,1.625,1.761,0.000,6.486,0.000,0.000,35.935
4059,3.886,1.625,1.805,0.000,6.660,0.000,0.000,35.903
4158,3.898,1.625,1.850,0.000,6.834,0.000,0.000,35.901
4257,3.911,1.625,1.895,0.000,7.008,0.000,0.000,35.909
4356,3.924,1.625,1.939,0.000,7.183,0.000,0.000,35.863
4455,3.937,1.625,1.984,0.000,7.359,0.000,0.000,35.909
4554,3.949,1.625,2.029,0.000,7.535,0.000,0.000,35.870
4653,3.962,1.625,2.073,0.000,7.712,0.000,0.000,35.882
4752,3.975,1.625,2.118,0.000,7.889,0.000,0.000,35.853
4851,3.987,1.625,2.163,0.000,8.067,0.000,0.000,35.805
4950,4.000,1.625,2.207,0.000,8.246,0.000,0.000,35.807
5049,4.012,1.625,2.252,0.000,8.425,0.000,0.000,35.794
5148,4.024,1.625,2.297,0.000,8.604,0.000,0.000,35.806
5247,4.037,1.625,2.342,0.000,8.784,0.000,0.000,35.793
5346,4.050,1.625,2.386,0.000,8.965,0.000,0.000,35.772
5445,4.063,1.625,2.431,0.000,9.146,0.000,0.000,35.813
5544,4.077,1.625,2.476,0.000,9.328,0.000,0.000,35.806
5643,4.091,1.625,2.520,0.000,9.511,0.000,0.000,35.844
5742,4.107,1.625,2.565,0.000,9.694,0.000,0.000,35.853
5841,4.123,1.625,2.610,0.000,9.878,0.000,0.000,35.851
5940,4.140,1.625,2.654,0.000,10.062,0.000,0.000,35.908
6039,4.157,1.625,2.699,0.000,10.248,0.000,0.000,35.914
6138,4.175,1.625,2.744,0.000,10.434,0.000,0.000,35.967
6237,4.193,1.625,2.788,0.000,10.621,0.000,0.000,35.990
6335,4.200,1.487,2.832,0.000,10.802,0.000,0.000,35.974
6434,4.200,1.333,2.870,0.000,10.964,0.000,0.000,35.939
6533,4.200,1.210,2.905,0.000,11.111,0.000,0.000,35.823
6632,4.200,1.106,2.937,0.000,11.244,0.000,0.000,35.774
6731,4.200,1.017,2.966,0.000,11.367,0.000,0.000,35.621
6830,4.200,0.939,2.993,0.000,11.480,0.000,0.000,35.612
6929,4.200,0.870,3.018,0.000,11.584,0.000,0.000,35.545
7028,4.200,0.807,3.041,0.000,11.681,0.000,0.000,35.410
7127,4.200,0.747,3.062,0.000,11.771,0.000,0.000,35.339
7226,4.200,0.692,3.082,0.000,11.854,0.000,0.000,35.273
7325,4.200,0.638,3.100,0.000,11.931,0.000,0.000,35.218
7424,4.200,0.588,3.117,0.000,12.001,0.000,0.000,35.154
7523,4.200,0.539,3.133,0.000,12.066,0.000,0.000,35.102
7622,4.200,0.495,3.147,0.000,12.126,0.000,0.000,35.033
7721,4.200,0.451,3.160,0.000,12.181,0.000,0.000,34.992
7820,4.200,0.412,3.172,0.000,12.231,0.000,0.000,34.957
7919,4.200,0.375,3.183,0.000,12.276,0.000,0.000,34.931
8018,4.200,0.340,3.192,0.000,12.317,0.000,0.000,34.909
8117,4.200,0.307,3.201,0.000,12.354,0.000,0.000,34.852
8216,4.200,0.278,3.209,0.000,12.388,0.000,0.000,34.873
8315,4.200,0.251,3.217,0.000,12.419,0.000,0.000,34.860
8414,4.200,0.227,3.223,0.000,12.446,0.000,0.000,34.807
8513,4.200,0.204,3.229,0.000,12.471,0.000,0.000,34.762
8612,4.200,0.185,3.234,0.000,12.494,0.000,0.000,34.765
8711,4.200,0.167,3.239,0.000,12.514,0.000,0.000,34.766
8810,4.200,0.151,3.244,0.000,12.532,0.000,0.000,34.737
8909,4.200,0.137,3.248,0.000,12.549,0.000,0.000,34.725
9008,4.200,0.125,3.251,0.000,12.564,0.000,0.000,34.714
9107,4.200,0.111,3.254,0.000,12.577,0.000,0.000,34.730
9206,4.200,0.102,3.257,0.000,12.590,0.000,0.000,34.678
9305,4.200,0.093,3.260,0.000,12.601,0.000,0.000,34.699
9404,4.200,0.085,3.262,0.000,12.611,0.000,0.000,34.708
9503,4.200,0.077,3.265,0.000,12.620,0.000,0.000,34.674
9602,4.200,0.070,3.267,0.000,12.629,0.000,0.000,34.709
9701,4.196,0.000,3.268,0.000,12.636,0.000,0.000,34.683
9800,4.193,0.000,3.268,0.000,12.636,0.000,0.000,34.612
9899,4.192,0.000,3.268,0.000,12.636,0.000,0.000,34.688
9998,4.191,0.000,3.268,0.000,12.636,0.000,0.000,34.604
10097,4.190,0.000,3.268,0.000,12.636,0.000,0.000,34.637
10196,4.190,0.000,3.268,0.000,12.636,0.000,0.000,34.636
10295,4.189,0.000,3.268,0.000,12.636,0.000,0.000,34.641
10394,4.188,0.000,3.268,0.000,12.636,0.000,0.000,34.669
10493,4.188,0.000,3.268,0.000,12.636,0.000,0.000,34.621
10592,4.187,0.000,3.268,0.000,12.636,0.000,0.000,34.619
10691,4.187,0.000,3.268,0.000,12.636,0.000,0.000,34.665
10790,4.187,0.000,3.268,0.000,12.636,0.000,0.000,34.646
10889,4.186,0.000,3.268,0.000,12.636,0.000,0.000,34.651
10988,4.186,0.000,3.268,0.000,12.636,0.000,0.000,34.604
11087,4.186,0.000,3.268,0.000,12.636,0.000,0.000,34.620
11186,4.185,0.000,3.268,0.000,12.636,0.000,0.000,34.609
11285,4.185,0.000,3.268,0.000,12.636,0.000,0.000,34.638
11384,4.185,0.000,3.268,0.000,12.636,0.000,0.000,34.610
11483,4.184,0.000,3.268,0.000,12.636,0.000,0.000,34.602
11582,4.184,0.000,3.268,0.000,12.636,0.000,0.000,34.674
11681,4.184,0.000,3.268,0.000,12.636,0.000,0.000,34.642
11780,4.184,0.000,3.268,0.000,12.636,0.000,0.000,34.640
11879,4.184,0.000,3.268,0.000,12.636,0.000,0.000,34.665
11978,4.183,0.000,3.268,0.000,12.636,0.000,0.000,34.588
12077,4.183,0.000,3.268,0.000,12.636,0.000,0.000,34.620
12176,4.183,0.000,3.268,0.000,12.636,0.000,0.000,34.609
12275,4.183,0.000,3.268,0.000,12.636,0.000,0.000,34.639
12374,4.183,0.000,3.268,0.000,12.636,0.000,0.000,34.621
12473,4.182,0.000,3.268,0.000,12.636,0.000,0.000,34.641
12572,4.182,0.000,3.268,0.000,12.636,0.000,0.000,34.625
12671,4.182,0.000,3.268,0.000,12.636,0.000,0.000,34.608
12770,4.182,0.000,3.268,0.000,12.636,0.000,0.000,34.670
12869,4.182,0.000,3.268,0.000,12.636,0.000,0.000,34.650
12968,4.182,0.000,3.268,0.000,12.636,0.000,0.000,34.624
13067,4.182,0.000,3.268,0.000,12.636,0.000,0.000,34.624
13166,4.181,0.000,3.268,0.000,12.636,0.000,0.000,34.644
13265,4.181,0.000,3.268,0.000,12.636,0.000,0.000,34.647
13363,3.456,-10.050,3.268,0.187,12.636,0.658,-0.001,38.073
13462,3.344,-10.049,3.268,0.463,12.636,1.597,-0.001,43.276
13561,3.234,-10.047,3.268,0.740,12.636,2.506,-0.002,46.874
13660,3.127,-10.047,3.268,1.016,12.636,3.385,-0.001,49.668
13759,3.031,-10.047,3.268,1.292,12.636,4.235,-0.001,51.991
13858,2.945,-10.047,3.268,1.569,12.636,5.061,-0.001,54.250
13957,2.860,-10.047,3.268,1.845,12.636,5.863,-0.001,55.988
14056,2.771,-10.047,3.268,2.121,12.636,6.641,-0.001,57.911
14155,2.677,-10.046,3.268,2.398,12.636,7.393,-0.001,59.755
14254,2.579,-10.047,3.268,2.674,12.636,8.120,-0.001,61.450
14352,3.349,0.000,3.268,2.864,12.636,8.604,0.002,62.573
14451,3.375,0.000,3.268,2.864,12.636,8.604,0.000,55.706
14550,3.377,0.000,3.268,2.864,12.636,8.604,0.000,50.086
14649,3.381,0.000,3.268,2.864,12.636,8.604,0.000,45.819
14748,3.385,0.000,3.268,2.864,12.636,8.604,0.000,42.801
14847,3.387,0.000,3.268,2.864,12.636,8.604,0.000,40.770
14946,3.389,0.000,3.268,2.864,12.636,8.604,0.000,39.218
15045,3.389,0.000,3.268,2.864,12.636,8.604,0.000,38.069
15144,3.390,0.000,3.268,2.864,12.636,8.604,0.000,37.209
15243,3.390,0.000,3.268,2.864,12.636,8.604,0.000,36.580
15342,3.390,0.000,3.268,2.864,12.636,8.604,0.000,36.126
15441,3.390,0.000,3.268,2.864,12.636,8.604,0.000,35.780
15540,3.390,0.000,3.268,2.864,12.636,8.604,0.000,35.480
15639,3.390,0.000,3.268,2.864,12.636,8.604,0.000,35.305
15738,3.390,0.000,3.268,2.864,12.636,8.604,0.000,35.122
15837,3.390,0.000,3.268,2.864,12.636,8.604,0.000,35.037
15936,3.390,0.000,3.268,2.864,12.636,8.604,0.000,34.950
16035,3.390,0.000,3.268,2.864,12.636,8.604,0.000,34.896
16134,3.390,0.000,3.268,2.864,12.636,8.604,0.000,34.814
16233,3.390,0.000,3.268,2.864,12.636,8.604,0.000,34.816
16332,3.390,0.000,3.268,2.864,12.636,8.604,0.000,34.735
16431,3.390,0.000,3.268,2.864,12.636,8.604,0.000,34.687
16530,3.390,0.000,3.268,2.864,12.636,8.604,0.000,34.720
16629,3.390,0.000,3.268,2.864,12.636,8.604,0.000,34.701
16728,3.390,0.000,3.268,2.864,12.636,8.604,0.000,34.655
16827,3.390,0.000,3.268,2.864,12.636,8.604,0.000,34.681
16926,3.390,0.000,3.268,2.864,12.636,8.604,0.000,34.685
17025,3.390,0.000,3.268,2.864,12.636,8.604,0.000,34.682
17124,3.390,0.000,3.268,2.864,12.636,8.604,0.000,34.623
17223,3.390,0.000,3.268,2.864,12.636,8.604,0.000,34.592
17322,3.390,0.000,3.268,2.864,12.636,8.604,0.000,34.650
17421,3.390,0.000,3.268,2.864,12.636,8.604,0.000,34.649
17520,3.390,0.000,3.268,2.864,12.636,8.604,0.000,34.653
17619,3.390,0.000,3.268,2.864,12.636,8.604,0.000,34.670
17718,3.390,0.000,3.268,2.864,12.636,8.604,0.000,34.659
17817,3.390,0.000,3.268,2.864,12.636,8.604,0.000,34.620
17916,3.390,0.000,3.268,2.864,12.636,8.604,0.000,34.638
17922,3.390,0.000,3.268,2.864,12.636,8.604,0.000,34.659