File: data/T35/3C/6.csv
time_s,voltage_v,current_a,chargecapacity_ah,dischargecapacity_ah,charge_energy_wh,discharge_energy_wh,voltagedot_v_per_s,temp_degc
1,3.924,0.000,0.000,0.000,0.000,0.000,0.000,27.617
63,4.019,1.625,0.001,0.000,0.005,0.000,0.002,28.764
126,4.046,1.625,0.030,0.000,0.120,0.000,0.000,29.740
189,4.056,1.625,0.058,0.000,0.235,0.000,0.000,30.736
252,4.065,1.625,0.087,0.000,0.351,0.000,0.000,31.719
315,4.074,1.625,0.115,0.000,0.467,0.000,0.000,32.369
378,4.084,1.625,0.144,0.000,0.583,0.000,0.000,32.959
441,4.094,1.625,0.172,0.000,0.699,0.000,0.000,33.402
504,4.105,1.625,0.200,0.000,0.816,0.000,0.000,33.691
567,4.116,1.625,0.229,0.000,0.933,0.000,0.000,33.964
630,4.127,1.625,0.257,0.000,1.050,0.000,0.000,34.234
693,4.139,1.625,0.286,0.000,1.167,0.000,0.000,34.349
756,4.150,1.625,0.314,0.000,1.285,0.000,0.000,34.536
819,4.162,1.625,0.343,0.000,1.403,0.000,0.000,34.694
882,4.173,1.625,0.371,0.000,1.522,0.000,0.000,34.815
945,4.184,1.625,0.400,0.000,1.641,0.000,0.000,34.923
1008,4.195,1.625,0.428,0.000,1.760,0.000,0.000,34.976
1071,4.200,1.539,0.456,0.000,1.877,0.000,0.000,35.070
1134,4.200,1.416,0.482,0.000,1.985,0.000,0.000,35.155
1197,4.200,1.312,0.505,0.000,2.085,0.000,0.000,35.113
1260,4.200,1.217,0.528,0.000,2.178,0.000,0.000,35.197
1323,4.200,1.130,0.548,0.000,2.264,0.000,0.000,35.150
1386,4.200,1.047,0.567,0.000,2.344,0.000,0.000,35.125
1449,4.200,0.968,0.585,0.000,2.418,0.000,0.000,35.106
1512,4.200,0.895,0.601,0.000,2.487,0.000,0.000,35.032
1575,4.200,0.825,0.616,0.000,2.550,0.000,0.000,35.006
1638,4.200,0.759,0.630,0.000,2.608,0.000,0.000,35.004
1701,4.200,0.696,0.643,0.000,2.662,0.000,0.000,34.967
1764,4.200,0.637,0.654,0.000,2.711,0.000,0.000,34.902
1827,4.200,0.581,0.665,0.000,2.755,0.000,0.000,34.890
1890,4.200,0.529,0.675,0.000,2.796,0.000,0.000,34.842
1953,4.200,0.481,0.684,0.000,2.833,0.000,0.000,34.786
2016,4.200,0.436,0.692,0.000,2.867,0.000,0.000,34.758
2079,4.200,0.396,0.699,0.000,2.897,0.000,0.000,34.748
2142,4.200,0.359,0.705,0.000,2.925,0.000,0.000,34.680
2205,4.200,0.325,0.711,0.000,2.950,0.000,0.000,34.688
2268,4.200,0.294,0.717,0.000,2.973,0.000,0.000,34.644
2331,4.200,0.265,0.722,0.000,2.994,0.000,0.000,34.644
2394,4.200,0.241,0.726,0.000,3.012,0.000,0.000,34.652
2457,4.200,0.218,0.730,0.000,3.029,0.000,0.000,34.645
2520,4.200,0.197,0.734,0.000,3.044,0.000,0.000,34.645
2583,4.200,0.179,0.737,0.000,3.058,0.000,0.000,34.598
2646,4.200,0.163,0.740,0.000,3.071,0.000,0.000,34.562
2709,4.200,0.148,0.743,0.000,3.082,0.000,0.000,34.565
2772,4.200,0.135,0.745,0.000,3.092,0.000,0.000,34.557
2835,4.200,0.122,0.748,0.000,3.102,0.000,0.000,34.545
2898,4.200,0.111,0.750,0.000,3.110,0.000,0.000,34.506
2961,4.200,0.102,0.751,0.000,3.118,0.000,0.000,34.497
3024,4.200,0.093,0.753,0.000,3.125,0.000,0.000,34.571
3087,4.200,0.086,0.755,0.000,3.132,0.000,0.000,34.525
3150,4.200,0.078,0.756,0.000,3.138,0.000,0.000,34.511
3213,4.200,0.072,0.757,0.000,3.144,0.000,0.000,34.521
3276,4.200,0.066,0.759,0.000,3.149,0.000,0.000,34.514
3339,4.194,0.000,0.759,0.000,3.149,0.000,0.000,34.497
3402,4.193,0.000,0.759,0.000,3.149,0.000,0.000,34.493
3465,4.193,0.000,0.759,0.000,3.149,0.000,0.000,34.521
3528,4.192,0.000,0.759,0.000,3.149,0.000,0.000,34.493
3591,4.192,0.000,0.759,0.000,3.149,0.000,0.000,34.488
3654,4.192,0.000,0.759,0.000,3.149,0.000,0.000,34.509
3717,4.191,0.000,0.759,0.000,3.149,0.000,0.000,34.474
3780,4.191,0.000,0.759,0.000,3.149,0.000,0.000,34.460
3843,4.191,0.000,0.759,0.000,3.149,0.000,0.000,34.510
3906,4.190,0.000,0.759,0.000,3.149,0.000,0.000,34.504
3969,4.190,0.000,0.759,0.000,3.149,0.000,0.000,34.446
4032,4.190,0.000,0.759,0.000,3.149,0.000,0.000,34.410
4095,4.190,0.000,0.759,0.000,3.149,0.000,0.000,34.466
4158,4.190,0.000,0.759,0.000,3.149,0.000,0.000,34.468
4221,4.190,0.000,0.759,0.000,3.149,0.000,0.000,34.431
4284,4.189,0.000,0.759,0.000,3.149,0.000,0.000,34.467
4347,4.189,0.000,0.759,0.000,3.149,0.000,0.000,34.473
4410,4.189,0.000,0.759,0.000,3.149,0.000,0.000,34.471
4473,4.189,0.000,0.759,0.000,3.149,0.000,0.000,34.443
4536,4.189,0.000,0.759,0.000,3.149,0.000,0.000,34.440
4599,4.189,0.000,0.759,0.000,3.149,0.000,0.000,34.417
4662,4.189,0.000,0.759,0.000,3.149,0.000,0.000,34.427
4725,4.188,0.000,0.759,0.000,3.149,0.000,0.000,34.464
4788,4.188,0.000,0.759,0.000,3.149,0.000,0.000,34.451
4851,4.188,0.000,0.759,0.000,3.149,0.000,0.000,34.467
4914,4.188,0.000,0.759,0.000,3.149,0.000,0.000,34.427
4977,4.188,0.000,0.759,0.000,3.149,0.000,0.000,34.463
5040,4.188,0.000,0.759,0.000,3.149,0.000,0.000,34.455
5103,4.188,0.000,0.759,0.000,3.149,0.000,0.000,34.457
5166,4.188,0.000,0.759,0.000,3.149,0.000,0.000,34.427
5229,4.188,0.000,0.759,0.000,3.149,0.000,0.000,34.427
5292,4.188,0.000,0.759,0.000,3.149,0.000,0.000,34.432
5355,4.187,0.000,0.759,0.000,3.149,0.000,0.000,34.442
5418,4.187,0.000,0.759,0.000,3.149,0.000,0.000,34.479
5481,4.187,0.000,0.759,0.000,3.149,0.000,0.000,34.450
5544,4.187,0.000,0.759,0.000,3.149,0.000,0.000,34.453
5607,4.187,0.000,0.759,0.000,3.149,0.000,0.000,34.490
5670,4.187,0.000,0.759,0.000,3.149,0.000,0.000,34.495
5733,4.187,0.000,0.759,0.000,3.149,0.000,0.000,34.444
5796,4.187,0.000,0.759,0.000,3.149,0.000,0.000,34.446
5859,4.187,0.000,0.759,0.000,3.149,0.000,0.000,34.468
5922,4.187,0.000,0.759,0.000,3.149,0.000,0.000,34.448
5985,4.187,0.000,0.759,0.000,3.149,0.000,0.000,34.461
6048,4.187,0.000,0.759,0.000,3.149,0.000,0.000,34.465
6111,4.187,0.000,0.759,0.000,3.149,0.000,0.000,34.444
6174,4.187,0.000,0.759,0.000,3.149,0.000,0.000,34.451
6237,4.187,0.000,0.759,0.000,3.149,0.000,0.000,34.444
6300,4.186,0.000,0.759,0.000,3.149,0.000,0.000,34.428
6363,4.186,0.000,0.759,0.000,3.149,0.000,0.000,34.491
6426,4.186,0.000,0.759,0.000,3.149,0.000,0.000,34.407
6489,4.186,0.000,0.759,0.000,3.149,0.000,0.000,34.472
6552,4.186,0.000,0.759,0.000,3.149,0.000,0.000,34.443
6615,4.186,0.000,0.759,0.000,3.149,0.000,0.000,34.450
6678,4.186,0.000,0.759,0.000,3.149,0.000,0.000,34.444
6741,4.186,0.000,0.759,0.000,3.149,0.000,0.000,34.436
6804,4.186,0.000,0.759,0.000,3.149,0.000,0.000,34.483
6867,4.186,0.000,0.759,0.000,3.149,0.000,0.000,34.476
6929,3.482,-10.049,0.759,0.128,3.149,0.453,-0.001,36.809
6992,3.417,-10.048,0.759,0.304,3.149,1.060,-0.001,40.435
7055,3.350,-10.048,0.759,0.480,3.149,1.655,-0.001,43.522
7118,3.282,-10.048,0.759,0.656,3.149,2.238,-0.001,46.033
7181,3.214,-10.049,0.759,0.832,3.149,2.809,-0.001,48.057
7244,3.148,-10.049,0.759,1.008,3.149,3.368,-0.001,49.763
7307,3.085,-10.049,0.759,1.183,3.149,3.916,-0.001,51.368
7370,3.026,-10.050,0.759,1.359,3.149,4.453,-0.001,52.855
7433,2.970,-10.049,0.759,1.535,3.149,4.981,-0.001,54.233
7496,2.917,-10.050,0.759,1.711,3.149,5.498,-0.001,55.457
7559,2.864,-10.050,0.759,1.887,3.149,6.007,-0.001,56.854
7622,2.810,-10.050,0.759,2.063,3.149,6.506,-0.001,57.985
7685,2.755,-10.051,0.759,2.239,3.149,6.995,-0.001,58.908
7748,2.699,-10.051,0.759,2.415,3.149,7.475,-0.001,60.255
7811,2.641,-10.051,0.759,2.590,3.149,7.944,-0.001,61.421
7874,2.579,-10.052,0.759,2.766,3.149,8.404,-0.001,62.612
7937,3.157,0.000,0.759,2.933,3.149,8.827,0.020,63.692
8000,3.344,0.000,0.759,2.933,3.149,8.827,0.000,59.953
8063,3.353,0.000,0.759,2.933,3.149,8.827,0.000,55.733
8126,3.354,0.000,0.759,2.933,3.149,8.827,0.000,51.931
8189,3.355,0.000,0.759,2.933,3.149,8.827,0.000,48.945
8252,3.356,0.000,0.759,2.933,3.149,8.827,0.000,46.515
8315,3.356,0.000,0.759,2.933,3.149,8.827,0.000,44.539
8378,3.356,0.000,0.759,2.933,3.149,8.827,0.000,42.875
8441,3.356,0.000,0.759,2.933,3.149,8.827,0.000,41.565
8504,3.357,0.000,0.759,2.933,3.149,8.827,0.000,40.436
8567,3.357,0.000,0.759,2.933,3.149,8.827,0.000,39.511
8630,3.357,0.000,0.759,2.933,3.149,8.827,0.000,38.740
8693,3.357,0.000,0.759,2.933,3.149,8.827,0.000,38.080
8756,3.357,0.000,0.759,2.933,3.149,8.827,0.000,37.547
8819,3.357,0.000,0.759,2.933,3.149,8.827,0.000,37.095
8882,3.357,0.000,0.759,2.933,3.149,8.827,0.000,36.771
8945,3.356,0.000,0.759,2.933,3.149,8.827,0.000,36.395
9008,3.356,0.000,0.759,2.933,3.149,8.827,0.000,36.134
9071,3.356,0.000,0.759,2.933,3.149,8.827,0.000,35.884
9134,3.356,0.000,0.759,2.933,3.149,8.827,0.000,35.652
9197,3.356,0.000,0.759,2.933,3.149,8.827,0.000,35.491
9260,3.356,0.000,0.759,2.933,3.149,8.827,0.000,35.373
9323,3.355,0.000,0.759,2.933,3.149,8.827,0.000,35.260
9386,3.355,0.000,0.759,2.933,3.149,8.827,0.000,35.118
9449,3.355,0.000,0.759,2.933,3.149,8.827,0.000,35.046
9512,3.355,0.000,0.759,2.933,3.149,8.827,0.000,34.979
9575,3.355,0.000,0.759,2.933,3.149,8.827,0.000,34.960
9638,3.355,0.000,0.759,2.933,3.149,8.827,0.000,34.852
9701,3.355,0.000,0.759,2.933,3.149,8.827,0.000,34.836
9764,3.355,0.000,0.759,2.933,3.149,8.827,0.000,34.783
9827,3.355,0.000,0.759,2.933,3.149,8.827,0.000,34.728
9890,3.355,0.000,0.759,2.933,3.149,8.827,0.000,34.714
9953,3.355,0.000,0.759,2.933,3.149,8.827,0.000,34.641
10016,3.355,0.000,0.759,2.933,3.149,8.827,0.000,34.672
10079,3.355,0.000,0.759,2.933,3.149,8.827,0.000,34.618
10142,3.355,0.000,0.759,2.933,3.149,8.827,0.000,34.643
10205,3.355,0.000,0.759,2.933,3.149,8.827,0.000,34.590
10268,3.355,0.000,0.759,2.933,3.149,8.827,0.000,34.587
10331,3.355,0.000,0.759,2.933,3.149,8.827,0.000,34.542
10394,3.355,0.000,0.759,2.933,3.149,8.827,0.000,34.549
10457,3.355,0.000,0.759,2.933,3.149,8.827,0.000,34.534
10520,3.354,0.000,0.759,2.933,3.149,8.827,0.000,34.557
10583,3.354,0.000,0.759,2.933,3.149,8.827,0.000,34.528
10646,3.354,0.000,0.759,2.933,3.149,8.827,0.000,34.580
10709,3.354,0.000,0.759,2.933,3.149,8.827,0.000,34.522
10772,3.355,0.000,0.759,2.933,3.149,8.827,0.000,34.523
10835,3.354,0.000,0.759,2.933,3.149,8.827,0.000,34.553
10898,3.354,0.000,0.759,2.933,3.149,8.827,0.000,34.535
10961,3.354,0.000,0.759,2.933,3.149,8.827,0.000,34.483
11024,3.355,0.000,0.759,2.933,3.149,8.827,0.000,34.517
11087,3.354,0.000,0.759,2.933,3.149,8.827,0.000,34.526
11150,3.354,0.000,0.759,2.933,3.149,8.827,0.000,34.456
11213,3.354,0.000,0.759,2.933,3.149,8.827,0.000,34.483
11276,3.354,0.000,0.759,2.933,3.149,8.827,0.000,34.500
11339,3.355,0.000,0.759,2.933,3.149,8.827,0.000,34.487
11402,3.354,0.000,0.759,2.933,3.149,8.827,0.000,34.524
11465,3.354,0.000,0.759,2.933,3.149,8.827,0.000,34.504
11528,3.355,0.000,0.759,2.933,3.149,8.827,0.000,34.426
11534,3.354,0.000,0.759,2.933,3.149,8.827,0.000,34.442