File: data/T35/1C/2.csv
time_s,voltage_v,current_a,chargecapacity_ah,dischargecapacity_ah,charge_energy_wh,discharge_energy_wh,voltagedot_v_per_s,temp_degc
1,2.992,0.000,0.000,0.000,0.000,0.000,0.000,34.630
135,2.993,0.000,0.000,0.000,0.000,0.000,0.000,34.632
269,2.993,0.000,0.000,0.000,0.000,0.000,0.000,34.652
403,2.993,0.000,0.000,0.000,0.000,0.000,0.000,34.649
537,2.993,0.000,0.000,0.000,0.000,0.000,0.000,34.625
671,2.993,0.000,0.000,0.000,0.000,0.000,0.000,34.635
805,2.994,0.000,0.000,0.000,0.000,0.000,0.000,34.645
939,2.994,0.000,0.000,0.000,0.000,0.000,0.000,34.627
1073,2.994,0.000,0.000,0.000,0.000,0.000,0.000,34.659
1207,2.994,0.000,0.000,0.000,0.000,0.000,0.000,34.638
1341,2.995,0.000,0.000,0.000,0.000,0.000,0.000,34.654
1475,2.995,0.000,0.000,0.000,0.000,0.000,0.000,34.621
1609,2.995,0.000,0.000,0.000,0.000,0.000,0.000,34.661
1743,2.995,0.000,0.000,0.000,0.000,0.000,0.000,34.664
1877,2.996,0.000,0.000,0.000,0.000,0.000,0.000,34.661
2011,2.996,0.000,0.000,0.000,0.000,0.000,0.000,34.644
2145,2.996,0.000,0.000,0.000,0.000,0.000,0.000,34.641
2279,2.996,0.000,0.000,0.000,0.000,0.000,0.000,34.648
2413,2.996,0.000,0.000,0.000,0.000,0.000,0.000,34.660
2547,2.997,0.000,0.000,0.000,0.000,0.000,0.000,34.626
2681,2.997,0.000,0.000,0.000,0.000,0.000,0.000,34.683
2815,2.997,0.000,0.000,0.000,0.000,0.000,0.000,34.645
2949,2.998,0.000,0.000,0.000,0.000,0.000,0.000,34.590
3083,2.998,0.000,0.000,0.000,0.000,0.000,0.000,34.605
3217,2.998,0.000,0.000,0.000,0.000,0.000,0.000,34.652
3351,2.998,0.000,0.000,0.000,0.000,0.000,0.000,34.669
3485,2.998,0.000,0.000,0.000,0.000,0.000,0.000,34.647
3618,3.237,1.625,0.008,0.000,0.026,0.000,0.003,34.634
3752,3.437,1.625,0.069,0.000,0.229,0.000,0.001,34.653
3886,3.510,1.625,0.129,0.000,0.440,0.000,0.000,34.844
4020,3.521,1.625,0.190,0.000,0.652,0.000,0.000,35.145
4154,3.535,1.625,0.250,0.000,0.866,0.000,0.000,35.410
4288,3.548,1.625,0.311,0.000,1.080,0.000,0.000,35.551
4422,3.562,1.625,0.371,0.000,1.295,0.000,0.000,35.653
4556,3.577,1.625,0.432,0.000,1.511,0.000,0.000,35.683
4690,3.593,1.625,0.492,0.000,1.728,0.000,0.000,35.695
4824,3.610,1.625,0.553,0.000,1.946,0.000,0.000,35.643
4958,3.625,1.625,0.613,0.000,2.165,0.000,0.000,35.564
5092,3.637,1.625,0.674,0.000,2.384,0.000,0.000,35.528
5226,3.648,1.625,0.734,0.000,2.605,0.000,0.000,35.549
5360,3.660,1.625,0.795,0.000,2.826,0.000,0.000,35.554
5494,3.672,1.625,0.855,0.000,3.047,0.000,0.000,35.541
5628,3.684,1.625,0.916,0.000,3.270,0.000,0.000,35.550
5762,3.697,1.625,0.976,0.000,3.493,0.000,0.000,35.601
5896,3.709,1.625,1.037,0.000,3.717,0.000,0.000,35.624
6030,3.721,1.625,1.097,0.000,3.942,0.000,0.000,35.715
6164,3.733,1.625,1.157,0.000,4.167,0.000,0.000,35.695
6298,3.745,1.625,1.218,0.000,4.394,0.000,0.000,35.800
6432,3.756,1.625,1.278,0.000,4.620,0.000,0.000,35.807
6566,3.767,1.625,1.339,0.000,4.848,0.000,0.000,35.845
6700,3.778,1.625,1.399,0.000,5.076,0.000,0.000,35.866
6834,3.790,1.625,1.460,0.000,5.305,0.000,0.000,35.837
6968,3.803,1.625,1.520,0.000,5.535,0.000,0.000,35.861
7102,3.816,1.625,1.581,0.000,5.765,0.000,0.000,35.871
7236,3.830,1.625,1.641,0.000,5.996,0.000,0.000,35.876
7370,3.844,1.625,1.702,0.000,6.228,0.000,0.000,35.845
7504,3.860,1.625,1.762,0.000,6.461,0.000,0.000,35.888
7638,3.876,1.625,1.823,0.000,6.695,0.000,0.000,35.878
7772,3.892,1.625,1.883,0.000,6.930,0.000,0.000,35.816
7906,3.909,1.625,1.944,0.000,7.166,0.000,0.000,35.853
8040,3.926,1.625,2.004,0.000,7.403,0.000,0.000,35.878
8174,3.943,1.625,2.065,0.000,7.641,0.000,0.000,35.839
8308,3.960,1.625,2.125,0.000,7.880,0.000,0.000,35.857
8442,3.977,1.625,2.186,0.000,8.120,0.000,0.000,35.848
8576,3.993,1.625,2.246,0.000,8.361,0.000,0.000,35.801
8710,4.010,1.625,2.307,0.000,8.603,0.000,0.000,35.783
8844,4.027,1.625,2.367,0.000,8.846,0.000,0.000,35.784
8978,4.044,1.625,2.428,0.000,9.091,0.000,0.000,35.807
9112,4.061,1.625,2.488,0.000,9.336,0.000,0.000,35.816
9246,4.080,1.625,2.549,0.000,9.582,0.000,0.000,35.805
9380,4.100,1.625,2.609,0.000,9.829,0.000,0.000,35.863
9514,4.121,1.625,2.670,0.000,10.078,0.000,0.000,35.835
9648,4.144,1.625,2.730,0.000,10.328,0.000,0.000,35.847
9782,4.168,1.625,2.791,0.000,10.579,0.000,0.000,35.961
9916,4.192,1.625,2.851,0.000,10.832,0.000,0.000,35.959
10049,4.200,1.433,2.909,0.000,11.074,0.000,0.000,35.974
10183,4.200,1.246,2.958,0.000,11.282,0.000,0.000,35.874
10317,4.200,1.099,3.002,0.000,11.465,0.000,0.000,35.758
10451,4.200,0.978,3.041,0.000,11.627,0.000,0.000,35.612
10585,4.200,0.878,3.075,0.000,11.772,0.000,0.000,35.433
10719,4.200,0.789,3.106,0.000,11.902,0.000,0.000,35.343
10853,4.200,0.709,3.134,0.000,12.019,0.000,0.000,35.251
10987,4.200,0.637,3.159,0.000,12.124,0.000,0.000,35.192
11121,4.200,0.568,3.181,0.000,12.218,0.000,0.000,35.124
11255,4.200,0.506,3.201,0.000,12.302,0.000,0.000,35.035
11389,4.200,0.449,3.219,0.000,12.377,0.000,0.000,34.980
11523,4.200,0.395,3.235,0.000,12.443,0.000,0.000,34.949
11657,4.200,0.348,3.249,0.000,12.501,0.000,0.000,34.912
11791,4.200,0.305,3.261,0.000,12.552,0.000,0.000,34.891
11925,4.200,0.267,3.271,0.000,12.596,0.000,0.000,34.863
12059,4.200,0.232,3.281,0.000,12.635,0.000,0.000,34.811
12193,4.200,0.203,3.289,0.000,12.669,0.000,0.000,34.778
12327,4.200,0.177,3.296,0.000,12.699,0.000,0.000,34.786
12461,4.200,0.155,3.302,0.000,12.725,0.000,0.000,34.766
12595,4.200,0.135,3.307,0.000,12.747,0.000,0.000,34.716
12729,4.200,0.118,3.312,0.000,12.767,0.000,0.000,34.687
12863,4.200,0.105,3.316,0.000,12.784,0.000,0.000,34.729
12997,4.200,0.092,3.320,0.000,12.800,0.000,0.000,34.710
13131,4.200,0.081,3.323,0.000,12.813,0.000,0.000,34.723
13265,4.200,0.071,3.326,0.000,12.825,0.000,0.000,34.719
13399,4.195,0.000,3.328,0.000,12.833,0.000,0.000,34.702
13533,4.192,0.000,3.328,0.000,12.833,0.000,0.000,34.634
13667,4.191,0.000,3.328,0.000,12.833,0.000,0.000,34.688
13801,4.190,0.000,3.328,0.000,12.833,0.000,0.000,34.636
13935,4.189,0.000,3.328,0.000,12.833,0.000,0.000,34.681
14069,4.188,0.000,3.328,0.000,12.833,0.000,0.000,34.699
14203,4.188,0.000,3.328,0.000,12.833,0.000,0.000,34.684
14337,4.187,0.000,3.328,0.000,12.833,0.000,0.000,34.640
14471,4.186,0.000,3.328,0.000,12.833,0.000,0.000,34.702
14605,4.186,0.000,3.328,0.000,12.833,0.000,0.000,34.665
14739,4.186,0.000,3.328,0.000,12.833,0.000,0.000,34.649
14873,4.185,0.000,3.328,0.000,12.833,0.000,0.000,34.673
15007,4.185,0.000,3.328,0.000,12.833,0.000,0.000,34.699
15141,4.185,0.000,3.328,0.000,12.833,0.000,0.000,34.648
15275,4.184,0.000,3.328,0.000,12.833,0.000,0.000,34.656
15409,4.184,0.000,3.328,0.000,12.833,0.000,0.000,34.632
15543,4.184,0.000,3.328,0.000,12.833,0.000,0.000,34.658
15677,4.184,0.000,3.328,0.000,12.833,0.000,0.000,34.657
15811,4.183,0.000,3.328,0.000,12.833,0.000,0.000,34.635
15945,4.183,0.000,3.328,0.000,12.833,0.000,0.000,34.648
16079,4.183,0.000,3.328,0.000,12.833,0.000,0.000,34.644
16213,4.183,0.000,3.328,0.000,12.833,0.000,0.000,34.664
16347,4.182,0.000,3.328,0.000,12.833,0.000,0.000,34.638
16481,4.182,0.000,3.328,0.000,12.833,0.000,0.000,34.655
16615,4.182,0.000,3.328,0.000,12.833,0.000,0.000,34.631
16749,4.182,0.000,3.328,0.000,12.833,0.000,0.000,34.651
16883,4.182,0.000,3.328,0.000,12.833,0.000,0.000,34.649
17016,3.907,-3.350,3.328,0.049,12.833,0.194,-0.001,34.890
17150,3.860,-3.350,3.328,0.174,12.833,0.678,0.000,35.699
17284,3.821,-3.350,3.328,0.299,12.833,1.157,0.000,36.232
17418,3.779,-3.350,3.328,0.423,12.833,1.631,0.000,36.559
17552,3.735,-3.350,3.328,0.548,12.833,2.099,0.000,36.751
17686,3.693,-3.350,3.328,0.673,12.833,2.562,0.000,36.832
17820,3.655,-3.350,3.328,0.798,12.833,3.021,0.000,36.902
17954,3.619,-3.350,3.328,0.922,12.833,3.474,0.000,36.997
18088,3.582,-3.350,3.328,1.047,12.833,3.923,0.000,37.114
18222,3.544,-3.350,3.328,1.172,12.833,4.367,0.000,37.199
18356,3.504,-3.350,3.328,1.296,12.833,4.807,0.000,37.338
18490,3.465,-3.350,3.328,1.421,12.833,5.242,0.000,37.371
18624,3.428,-3.350,3.328,1.546,12.833,5.671,0.000,37.457
18758,3.394,-3.350,3.328,1.670,12.833,6.097,0.000,37.547
18892,3.362,-3.350,3.328,1.795,12.833,6.518,0.000,37.690
19026,3.333,-3.350,3.328,1.920,12.833,6.935,0.000,37.762
19160,3.305,-3.350,3.328,2.045,12.833,7.349,0.000,37.915
19294,3.278,-3.350,3.328,2.169,12.833,7.760,0.000,37.946
19428,3.247,-3.350,3.328,2.294,12.833,8.167,0.000,38.078
19562,3.213,-3.350,3.328,2.419,12.833,8.570,0.000,38.176
19696,3.173,-3.350,3.328,2.543,12.833,8.968,0.000,38.279
19830,3.124,-3.350,3.328,2.668,12.833,9.360,0.000,38.442
19964,3.065,-3.350,3.328,2.793,12.833,9.747,-0.001,38.698
20098,2.982,-3.350,3.328,2.918,12.833,10.124,-0.001,39.056
20232,2.848,-3.350,3.328,3.042,12.833,10.488,-0.001,39.746
20366,2.590,-3.350,3.328,3.167,12.833,10.829,-0.003,41.111
20500,3.225,0.000,3.328,3.193,12.833,10.896,0.000,39.733
20634,3.247,0.000,3.328,3.193,12.833,10.896,0.000,37.903
20768,3.254,0.000,3.328,3.193,12.833,10.896,0.000,36.717
20902,3.257,0.000,3.328,3.193,12.833,10.896,0.000,36.046
21036,3.260,0.000,3.328,3.193,12.833,10.896,0.000,35.580
21170,3.262,0.000,3.328,3.193,12.833,10.896,0.000,35.269
21304,3.263,0.000,3.328,3.193,12.833,10.896,0.000,35.063
21438,3.265,0.000,3.328,3.193,12.833,10.896,0.000,34.920
21572,3.265,0.000,3.328,3.193,12.833,10.896,0.000,34.840
21706,3.266,0.000,3.328,3.193,12.833,10.896,0.000,34.821
21840,3.267,0.000,3.328,3.193,12.833,10.896,0.000,34.742
21974,3.268,0.000,3.328,3.193,12.833,10.896,0.000,34.716
22108,3.268,0.000,3.328,3.193,12.833,10.896,0.000,34.723
22242,3.269,0.000,3.328,3.193,12.833,10.896,0.000,34.710
22376,3.270,0.000,3.328,3.193,12.833,10.896,0.000,34.692
22510,3.270,0.000,3.328,3.193,12.833,10.896,0.000,34.667
22644,3.271,0.000,3.328,3.193,12.833,10.896,0.000,34.723
22778,3.271,0.000,3.328,3.193,12.833,10.896,0.000,34.671
22912,3.272,0.000,3.328,3.193,12.833,10.896,0.000,34.659
23046,3.272,0.000,3.328,3.193,12.833,10.896,0.000,34.685
23180,3.273,0.000,3.328,3.193,12.833,10.896,0.000,34.710
23314,3.273,0.000,3.328,3.193,12.833,10.896,0.000,34.660
23448,3.273,0.000,3.328,3.193,12.833,10.896,0.000,34.704
23582,3.274,0.000,3.328,3.193,12.833,10.896,0.000,34.677
23716,3.274,0.000,3.328,3.193,12.833,10.896,0.000,34.625
23850,3.274,0.000,3.328,3.193,12.833,10.896,0.000,34.627
23984,3.275,0.000,3.328,3.193,12.833,10.896,0.000,34.646
23994,3.275,0.000,3.328,3.193,12.833,10.896,0.000,34.656