File: data/T35/1C/4.csv
time_s,voltage_v,current_a,chargecapacity_ah,dischargecapacity_ah,charge_energy_wh,discharge_energy_wh,voltagedot_v_per_s,temp_degc
1,2.934,0.000,0.000,0.000,0.000,0.000,0.000,34.579
135,2.934,0.000,0.000,0.000,0.000,0.000,0.000,34.565
269,2.935,0.000,0.000,0.000,0.000,0.000,0.000,34.598
403,2.935,0.000,0.000,0.000,0.000,0.000,0.000,34.577
537,2.935,0.000,0.000,0.000,0.000,0.000,0.000,34.593
671,2.936,0.000,0.000,0.000,0.000,0.000,0.000,34.578
805,2.936,0.000,0.000,0.000,0.000,0.000,0.000,34.596
939,2.936,0.000,0.000,0.000,0.000,0.000,0.000,34.646
1073,2.937,0.000,0.000,0.000,0.000,0.000,0.000,34.565
1207,2.937,0.000,0.000,0.000,0.000,0.000,0.000,34.596
1341,2.937,0.000,0.000,0.000,0.000,0.000,0.000,34.606
1475,2.937,0.000,0.000,0.000,0.000,0.000,0.000,34.562
1609,2.938,0.000,0.000,0.000,0.000,0.000,0.000,34.581
1743,2.938,0.000,0.000,0.000,0.000,0.000,0.000,34.612
1877,2.938,0.000,0.000,0.000,0.000,0.000,0.000,34.562
2011,2.939,0.000,0.000,0.000,0.000,0.000,0.000,34.605
2145,2.939,0.000,0.000,0.000,0.000,0.000,0.000,34.591
2279,2.939,0.000,0.000,0.000,0.000,0.000,0.000,34.576
2413,2.939,0.000,0.000,0.000,0.000,0.000,0.000,34.620
2547,2.940,0.000,0.000,0.000,0.000,0.000,0.000,34.572
2681,2.940,0.000,0.000,0.000,0.000,0.000,0.000,34.613
2815,2.940,0.000,0.000,0.000,0.000,0.000,0.000,34.598
2949,2.940,0.000,0.000,0.000,0.000,0.000,0.000,34.615
3083,2.941,0.000,0.000,0.000,0.000,0.000,0.000,34.578
3217,2.941,0.000,0.000,0.000,0.000,0.000,0.000,34.620
3351,2.941,0.000,0.000,0.000,0.000,0.000,0.000,34.599
3485,2.942,0.000,0.000,0.000,0.000,0.000,0.000,34.557
3618,3.159,1.625,0.008,0.000,0.025,0.000,0.003,34.557
3752,3.380,1.625,0.069,0.000,0.224,0.000,0.001,34.587
3886,3.476,1.625,0.129,0.000,0.432,0.000,0.000,34.677
4020,3.492,1.625,0.190,0.000,0.643,0.000,0.000,35.004
4154,3.505,1.625,0.250,0.000,0.855,0.000,0.000,35.406
4288,3.519,1.625,0.311,0.000,1.067,0.000,0.000,35.635
4422,3.534,1.625,0.371,0.000,1.280,0.000,0.000,35.823
4556,3.548,1.625,0.432,0.000,1.495,0.000,0.000,35.941
4690,3.564,1.625,0.492,0.000,1.710,0.000,0.000,36.047
4824,3.582,1.625,0.553,0.000,1.926,0.000,0.000,36.021
4958,3.598,1.625,0.613,0.000,2.143,0.000,0.000,36.029
5092,3.612,1.625,0.674,0.000,2.361,0.000,0.000,35.974
5226,3.625,1.625,0.734,0.000,2.580,0.000,0.000,35.950
5360,3.637,1.625,0.795,0.000,2.800,0.000,0.000,35.974
5494,3.650,1.625,0.855,0.000,3.020,0.000,0.000,35.935
5628,3.663,1.625,0.916,0.000,3.241,0.000,0.000,35.977
5762,3.675,1.625,0.976,0.000,3.463,0.000,0.000,36.040
5896,3.688,1.625,1.037,0.000,3.686,0.000,0.000,36.085
6030,3.700,1.625,1.097,0.000,3.910,0.000,0.000,36.140
6164,3.713,1.625,1.158,0.000,4.134,0.000,0.000,36.230
6298,3.724,1.625,1.218,0.000,4.359,0.000,0.000,36.286
6432,3.735,1.625,1.279,0.000,4.584,0.000,0.000,36.320
6566,3.746,1.625,1.339,0.000,4.811,0.000,0.000,36.371
6700,3.758,1.625,1.400,0.000,5.038,0.000,0.000,36.395
6834,3.770,1.625,1.460,0.000,5.265,0.000,0.000,36.458
6968,3.782,1.625,1.521,0.000,5.494,0.000,0.000,36.476
7102,3.795,1.625,1.581,0.000,5.723,0.000,0.000,36.511
7236,3.810,1.625,1.642,0.000,5.953,0.000,0.000,36.511
7370,3.824,1.625,1.702,0.000,6.184,0.000,0.000,36.543
7504,3.840,1.625,1.763,0.000,6.416,0.000,0.000,36.517
7638,3.856,1.625,1.823,0.000,6.649,0.000,0.000,36.573
7772,3.873,1.625,1.883,0.000,6.882,0.000,0.000,36.532
7906,3.890,1.625,1.944,0.000,7.117,0.000,0.000,36.581
8040,3.907,1.625,2.004,0.000,7.353,0.000,0.000,36.555
8174,3.924,1.625,2.065,0.000,7.590,0.000,0.000,36.522
8308,3.941,1.625,2.125,0.000,7.828,0.000,0.000,36.578
8442,3.958,1.625,2.186,0.000,8.067,0.000,0.000,36.555
8576,3.975,1.625,2.246,0.000,8.307,0.000,0.000,36.546
8710,3.992,1.625,2.307,0.000,8.548,0.000,0.000,36.533
8844,4.008,1.625,2.367,0.000,8.790,0.000,0.000,36.485
8978,4.025,1.625,2.428,0.000,9.033,0.000,0.000,36.501
9112,4.043,1.625,2.488,0.000,9.277,0.000,0.000,36.479
9246,4.061,1.625,2.549,0.000,9.522,0.000,0.000,36.537
9380,4.080,1.625,2.609,0.000,9.768,0.000,0.000,36.521
9514,4.101,1.625,2.670,0.000,10.016,0.000,0.000,36.561
9648,4.124,1.625,2.730,0.000,10.264,0.000,0.000,36.594
9782,4.147,1.625,2.791,0.000,10.515,0.000,0.000,36.624
9916,4.172,1.625,2.851,0.000,10.766,0.000,0.000,36.677
10050,4.196,1.625,2.912,0.000,11.019,0.000,0.000,36.756
10183,4.200,1.382,2.968,0.000,11.254,0.000,0.000,36.778
10317,4.200,1.199,3.016,0.000,11.455,0.000,0.000,36.669
10451,4.200,1.056,3.058,0.000,11.631,0.000,0.000,36.462
10585,4.200,0.935,3.095,0.000,11.786,0.000,0.000,36.302
10719,4.200,0.830,3.127,0.000,11.924,0.000,0.000,36.065
10853,4.200,0.739,3.156,0.000,12.046,0.000,0.000,35.940
10987,4.200,0.654,3.182,0.000,12.155,0.000,0.000,35.699
11121,4.200,0.578,3.205,0.000,12.251,0.000,0.000,35.632
11255,4.200,0.507,3.225,0.000,12.336,0.000,0.000,35.489
11389,4.200,0.443,3.243,0.000,12.410,0.000,0.000,35.372
11523,4.200,0.386,3.259,0.000,12.475,0.000,0.000,35.218
11657,4.200,0.336,3.272,0.000,12.531,0.000,0.000,35.154
11791,4.200,0.290,3.284,0.000,12.580,0.000,0.000,35.081
11925,4.200,0.251,3.294,0.000,12.622,0.000,0.000,35.024
12059,4.200,0.216,3.302,0.000,12.659,0.000,0.000,34.903
12193,4.200,0.188,3.310,0.000,12.690,0.000,0.000,34.906
12327,4.200,0.162,3.316,0.000,12.717,0.000,0.000,34.859
12461,4.200,0.140,3.322,0.000,12.741,0.000,0.000,34.801
12595,4.200,0.122,3.327,0.000,12.762,0.000,0.000,34.762
12729,4.200,0.107,3.331,0.000,12.780,0.000,0.000,34.725
12863,4.200,0.094,3.335,0.000,12.795,0.000,0.000,34.725
12997,4.200,0.083,3.338,0.000,12.809,0.000,0.000,34.719
13131,4.200,0.072,3.341,0.000,12.821,0.000,0.000,34.717
13265,4.196,0.000,3.343,0.000,12.831,0.000,0.000,34.650
13399,4.193,0.000,3.343,0.000,12.831,0.000,0.000,34.636
13533,4.192,0.000,3.343,0.000,12.831,0.000,0.000,34.622
13667,4.191,0.000,3.343,0.000,12.831,0.000,0.000,34.639
13801,4.190,0.000,3.343,0.000,12.831,0.000,0.000,34.597
13935,4.189,0.000,3.343,0.000,12.831,0.000,0.000,34.600
14069,4.188,0.000,3.343,0.000,12.831,0.000,0.000,34.630
14203,4.187,0.000,3.343,0.000,12.831,0.000,0.000,34.593
14337,4.187,0.000,3.343,0.000,12.831,0.000,0.000,34.666
14471,4.186,0.000,3.343,0.000,12.831,0.000,0.000,34.605
14605,4.186,0.000,3.343,0.000,12.831,0.000,0.000,34.647
14739,4.186,0.000,3.343,0.000,12.831,0.000,0.000,34.614
14873,4.185,0.000,3.343,0.000,12.831,0.000,0.000,34.600
15007,4.185,0.000,3.343,0.000,12.831,0.000,0.000,34.595
15141,4.185,0.000,3.343,0.000,12.831,0.000,0.000,34.611
15275,4.184,0.000,3.343,0.000,12.831,0.000,0.000,34.581
15409,4.184,0.000,3.343,0.000,12.831,0.000,0.000,34.627
15543,4.184,0.000,3.343,0.000,12.831,0.000,0.000,34.609
15677,4.183,0.000,3.343,0.000,12.831,0.000,0.000,34.628
15811,4.183,0.000,3.343,0.000,12.831,0.000,0.000,34.546
15945,4.183,0.000,3.343,0.000,12.831,0.000,0.000,34.629
16079,4.183,0.000,3.343,0.000,12.831,0.000,0.000,34.630
16213,4.182,0.000,3.343,0.000,12.831,0.000,0.000,34.591
16347,4.182,0.000,3.343,0.000,12.831,0.000,0.000,34.619
16481,4.182,0.000,3.343,0.000,12.831,0.000,0.000,34.588
16615,4.182,0.000,3.343,0.000,12.831,0.000,0.000,34.555
16749,4.182,0.000,3.343,0.000,12.831,0.000,0.000,34.615
16882,3.973,-3.350,3.343,0.030,12.831,0.119,-0.001,34.683
17016,3.912,-3.350,3.343,0.154,12.831,0.610,0.000,35.604
17150,3.872,-3.350,3.343,0.279,12.831,1.095,0.000,36.366
17284,3.828,-3.350,3.343,0.404,12.831,1.575,0.000,36.912
17418,3.782,-3.350,3.343,0.529,12.831,2.050,0.000,37.299
17552,3.739,-3.350,3.343,0.653,12.831,2.519,0.000,37.646
17686,3.700,-3.350,3.343,0.778,12.831,2.982,0.000,37.821
17820,3.663,-3.350,3.343,0.903,12.831,3.441,0.000,38.111
17954,3.627,-3.350,3.343,1.027,12.831,3.896,0.000,38.293
18088,3.588,-3.350,3.343,1.152,12.831,4.346,0.000,38.488
18222,3.549,-3.350,3.343,1.277,12.831,4.791,0.000,38.718
18356,3.509,-3.350,3.343,1.401,12.831,5.231,0.000,38.855
18490,3.472,-3.350,3.343,1.526,12.831,5.666,0.000,38.989
18624,3.436,-3.350,3.343,1.651,12.831,6.097,0.000,39.129
18758,3.404,-3.350,3.343,1.776,12.831,6.523,0.000,39.341
18892,3.375,-3.350,3.343,1.900,12.831,6.946,0.000,39.450
19026,3.348,-3.350,3.343,2.025,12.831,7.365,0.000,39.655
19160,3.322,-3.350,3.343,2.150,12.831,7.781,0.000,39.836
19294,3.294,-3.350,3.343,2.274,12.831,8.193,0.000,39.994
19428,3.262,-3.350,3.343,2.399,12.831,8.602,0.000,40.111
19562,3.225,-3.350,3.343,2.524,12.831,9.007,0.000,40.201
19696,3.184,-3.350,3.343,2.648,12.831,9.406,-0.001,40.413
19830,3.136,-3.350,3.343,2.773,12.831,9.801,0.000,40.628
19964,3.079,-3.350,3.343,2.898,12.831,10.188,0.000,40.875
20098,3.002,-3.350,3.343,3.023,12.831,10.568,-0.001,41.443
20232,2.871,-3.350,3.343,3.147,12.831,10.935,-0.002,42.250
20366,2.539,-3.350,3.343,3.272,12.831,11.276,-0.005,43.919
20500,3.087,0.000,3.343,3.279,12.831,11.295,0.000,42.242
20634,3.099,0.000,3.343,3.279,12.831,11.295,0.000,40.296
20768,3.106,0.000,3.343,3.279,12.831,11.295,0.000,38.899
20902,3.110,0.000,3.343,3.279,12.831,11.295,0.000,37.771
21036,3.113,0.000,3.343,3.279,12.831,11.295,0.000,36.974
21170,3.116,0.000,3.343,3.279,12.831,11.295,0.000,36.391
21304,3.118,0.000,3.343,3.279,12.831,11.295,0.000,35.905
21438,3.119,0.000,3.343,3.279,12.831,11.295,0.000,35.579
21572,3.121,0.000,3.343,3.279,12.831,11.295,0.000,35.343
21706,3.123,0.000,3.343,3.279,12.831,11.295,0.000,35.186
21840,3.124,0.000,3.343,3.279,12.831,11.295,0.000,34.975
21974,3.125,0.000,3.343,3.279,12.831,11.295,0.000,34.889
22108,3.126,0.000,3.343,3.279,12.831,11.295,0.000,34.838
22242,3.127,0.000,3.343,3.279,12.831,11.295,0.000,34.788
22376,3.128,0.000,3.343,3.279,12.831,11.295,0.000,34.727
22510,3.129,0.000,3.343,3.279,12.831,11.295,0.000,34.729
22644,3.130,0.000,3.343,3.279,12.831,11.295,0.000,34.677
22778,3.131,0.000,3.343,3.279,12.831,11.295,0.000,34.626
22912,3.132,0.000,3.343,3.279,12.831,11.295,0.000,34.651
23046,3.132,0.000,3.343,3.279,12.831,11.295,0.000,34.653
23180,3.133,0.000,3.343,3.279,12.831,11.295,0.000,34.659
23314,3.134,0.000,3.343,3.279,12.831,11.295,0.000,34.630
23448,3.134,0.000,3.343,3.279,12.831,11.295,0.000,34.659
23582,3.135,0.000,3.343,3.279,12.831,11.295,0.000,34.642
23716,3.135,0.000,3.343,3.279,12.831,11.295,0.000,34.589
23850,3.136,0.000,3.343,3.279,12.831,11.295,0.000,34.589
23974,3.137,0.000,3.343,3.279,12.831,11.295,0.000,34.638