File: data/T35/1C/5.csv
time_s,voltage_v,current_a,chargecapacity_ah,dischargecapacity_ah,charge_energy_wh,discharge_energy_wh,voltagedot_v_per_s,temp_degc
1,2.960,0.000,0.000,0.000,0.000,0.000,0.000,34.210
134,2.960,0.000,0.000,0.000,0.000,0.000,0.000,34.236
267,2.960,0.000,0.000,0.000,0.000,0.000,0.000,34.197
400,2.961,0.000,0.000,0.000,0.000,0.000,0.000,34.203
533,2.961,0.000,0.000,0.000,0.000,0.000,0.000,34.233
666,2.961,0.000,0.000,0.000,0.000,0.000,0.000,34.202
799,2.961,0.000,0.000,0.000,0.000,0.000,0.000,34.257
932,2.962,0.000,0.000,0.000,0.000,0.000,0.000,34.198
1065,2.962,0.000,0.000,0.000,0.000,0.000,0.000,34.227
1198,2.962,0.000,0.000,0.000,0.000,0.000,0.000,34.227
1331,2.962,0.000,0.000,0.000,0.000,0.000,0.000,34.173
1464,2.963,0.000,0.000,0.000,0.000,0.000,0.000,34.197
1597,2.963,0.000,0.000,0.000,0.000,0.000,0.000,34.193
1730,2.963,0.000,0.000,0.000,0.000,0.000,0.000,34.215
1863,2.963,0.000,0.000,0.000,0.000,0.000,0.000,34.230
1996,2.964,0.000,0.000,0.000,0.000,0.000,0.000,34.219
2129,2.964,0.000,0.000,0.000,0.000,0.000,0.000,34.217
2262,2.964,0.000,0.000,0.000,0.000,0.000,0.000,34.194
2395,2.964,0.000,0.000,0.000,0.000,0.000,0.000,34.251
2528,2.965,0.000,0.000,0.000,0.000,0.000,0.000,34.217
2661,2.965,0.000,0.000,0.000,0.000,0.000,0.000,34.236
2794,2.965,0.000,0.000,0.000,0.000,0.000,0.000,34.210
2927,2.965,0.000,0.000,0.000,0.000,0.000,0.000,34.219
3060,2.965,0.000,0.000,0.000,0.000,0.000,0.000,34.228
3193,2.966,0.000,0.000,0.000,0.000,0.000,0.000,34.218
3326,2.966,0.000,0.000,0.000,0.000,0.000,0.000,34.239
3459,2.966,0.000,0.000,0.000,0.000,0.000,0.000,34.249
3592,2.966,0.000,0.000,0.000,0.000,0.000,0.000,34.232
3724,3.370,1.625,0.056,0.000,0.183,0.000,0.001,34.190
3857,3.475,1.625,0.116,0.000,0.389,0.000,0.000,34.340
3990,3.493,1.625,0.176,0.000,0.599,0.000,0.000,34.658
4123,3.506,1.625,0.236,0.000,0.809,0.000,0.000,35.044
4256,3.520,1.625,0.296,0.000,1.020,0.000,0.000,35.311
4389,3.535,1.625,0.356,0.000,1.231,0.000,0.000,35.562
4522,3.550,1.625,0.416,0.000,1.444,0.000,0.000,35.735
4655,3.565,1.625,0.476,0.000,1.658,0.000,0.000,35.809
4788,3.583,1.625,0.536,0.000,1.872,0.000,0.000,35.845
4921,3.600,1.625,0.596,0.000,2.088,0.000,0.000,35.883
5054,3.614,1.625,0.656,0.000,2.305,0.000,0.000,35.844
5187,3.627,1.625,0.717,0.000,2.522,0.000,0.000,35.752
5320,3.639,1.625,0.777,0.000,2.740,0.000,0.000,35.823
5453,3.651,1.625,0.837,0.000,2.959,0.000,0.000,35.800
5586,3.663,1.625,0.897,0.000,3.179,0.000,0.000,35.855
5719,3.675,1.625,0.957,0.000,3.399,0.000,0.000,35.913
5852,3.688,1.625,1.017,0.000,3.620,0.000,0.000,35.940
5985,3.700,1.625,1.077,0.000,3.842,0.000,0.000,36.001
6118,3.712,1.625,1.137,0.000,4.064,0.000,0.000,36.103
6251,3.723,1.625,1.197,0.000,4.288,0.000,0.000,36.162
6384,3.734,1.625,1.257,0.000,4.512,0.000,0.000,36.239
6517,3.745,1.625,1.317,0.000,4.736,0.000,0.000,36.251
6650,3.756,1.625,1.377,0.000,4.961,0.000,0.000,36.314
6783,3.767,1.625,1.437,0.000,5.187,0.000,0.000,36.370
6916,3.780,1.625,1.497,0.000,5.414,0.000,0.000,36.419
7049,3.792,1.625,1.557,0.000,5.641,0.000,0.000,36.361
7182,3.806,1.625,1.617,0.000,5.869,0.000,0.000,36.429
7315,3.820,1.625,1.677,0.000,6.098,0.000,0.000,36.418
7448,3.835,1.625,1.737,0.000,6.328,0.000,0.000,36.441
7581,3.851,1.625,1.797,0.000,6.559,0.000,0.000,36.479
7714,3.867,1.625,1.857,0.000,6.790,0.000,0.000,36.470
7847,3.883,1.625,1.917,0.000,7.023,0.000,0.000,36.466
7980,3.900,1.625,1.977,0.000,7.257,0.000,0.000,36.476
8113,3.917,1.625,2.038,0.000,7.491,0.000,0.000,36.435
8246,3.934,1.625,2.098,0.000,7.727,0.000,0.000,36.470
8379,3.951,1.625,2.158,0.000,7.964,0.000,0.000,36.435
8512,3.968,1.625,2.218,0.000,8.202,0.000,0.000,36.407
8645,3.984,1.625,2.278,0.000,8.440,0.000,0.000,36.394
8778,4.001,1.625,2.338,0.000,8.680,0.000,0.000,36.362
8911,4.017,1.625,2.398,0.000,8.921,0.000,0.000,36.376
9044,4.035,1.625,2.458,0.000,9.163,0.000,0.000,36.293
9177,4.052,1.625,2.518,0.000,9.405,0.000,0.000,36.368
9310,4.072,1.625,2.578,0.000,9.649,0.000,0.000,36.424
9443,4.092,1.625,2.638,0.000,9.894,0.000,0.000,36.464
9576,4.114,1.625,2.698,0.000,10.141,0.000,0.000,36.451
9709,4.137,1.625,2.758,0.000,10.388,0.000,0.000,36.463
9842,4.161,1.625,2.818,0.000,10.637,0.000,0.000,36.519
9975,4.185,1.625,2.878,0.000,10.888,0.000,0.000,36.575
10107,4.200,1.498,2.937,0.000,11.135,0.000,0.000,36.609
10240,4.200,1.285,2.988,0.000,11.350,0.000,0.000,36.584
10373,4.200,1.127,3.033,0.000,11.536,0.000,0.000,36.398
10506,4.200,0.997,3.072,0.000,11.701,0.000,0.000,36.235
10639,4.200,0.889,3.107,0.000,11.847,0.000,0.000,36.052
10772,4.200,0.791,3.138,0.000,11.977,0.000,0.000,35.827
10905,4.200,0.700,3.165,0.000,12.092,0.000,0.000,35.666
11038,4.200,0.618,3.189,0.000,12.195,0.000,0.000,35.485
11171,4.200,0.542,3.211,0.000,12.284,0.000,0.000,35.306
11304,4.200,0.474,3.229,0.000,12.363,0.000,0.000,35.245
11437,4.200,0.412,3.246,0.000,12.432,0.000,0.000,35.049
11570,4.200,0.357,3.260,0.000,12.491,0.000,0.000,34.971
11703,4.200,0.308,3.272,0.000,12.543,0.000,0.000,34.852
11836,4.200,0.264,3.283,0.000,12.587,0.000,0.000,34.779
11969,4.200,0.228,3.292,0.000,12.625,0.000,0.000,34.703
12102,4.200,0.195,3.300,0.000,12.658,0.000,0.000,34.576
12235,4.200,0.169,3.306,0.000,12.686,0.000,0.000,34.563
12368,4.200,0.146,3.312,0.000,12.710,0.000,0.000,34.552
12501,4.200,0.127,3.317,0.000,12.732,0.000,0.000,34.462
12634,4.200,0.110,3.322,0.000,12.750,0.000,0.000,34.418
12767,4.200,0.096,3.325,0.000,12.766,0.000,0.000,34.424
12900,4.200,0.083,3.329,0.000,12.780,0.000,0.000,34.405
13033,4.200,0.074,3.332,0.000,12.792,0.000,0.000,34.347
13166,4.196,0.000,3.334,0.000,12.802,0.000,0.000,34.369
13299,4.193,0.000,3.334,0.000,12.802,0.000,0.000,34.266
13432,4.192,0.000,3.334,0.000,12.802,0.000,0.000,34.303
13565,4.191,0.000,3.334,0.000,12.802,0.000,0.000,34.272
13698,4.190,0.000,3.334,0.000,12.802,0.000,0.000,34.293
13831,4.189,0.000,3.334,0.000,12.802,0.000,0.000,34.239
13964,4.188,0.000,3.334,0.000,12.802,0.000,0.000,34.267
14097,4.188,0.000,3.334,0.000,12.802,0.000,0.000,34.246
14230,4.187,0.000,3.334,0.000,12.802,0.000,0.000,34.224
14363,4.187,0.000,3.334,0.000,12.802,0.000,0.000,34.246
14496,4.186,0.000,3.334,0.000,12.802,0.000,0.000,34.303
14629,4.186,0.000,3.334,0.000,12.802,0.000,0.000,34.242
14762,4.185,0.000,3.334,0.000,12.802,0.000,0.000,34.236
14895,4.185,0.000,3.334,0.000,12.802,0.000,0.000,34.270
15028,4.184,0.000,3.334,0.000,12.802,0.000,0.000,34.244
15161,4.184,0.000,3.334,0.000,12.802,0.000,0.000,34.234
15294,4.184,0.000,3.334,0.000,12.802,0.000,0.000,34.218
15427,4.184,0.000,3.334,0.000,12.802,0.000,0.000,34.246
15560,4.183,0.000,3.334,0.000,12.802,0.000,0.000,34.236
15693,4.183,0.000,3.334,0.000,12.802,0.000,0.000,34.275
15826,4.183,0.000,3.334,0.000,12.802,0.000,0.000,34.230
15959,4.183,0.000,3.334,0.000,12.802,0.000,0.000,34.265
16092,4.182,0.000,3.334,0.000,12.802,0.000,0.000,34.237
16225,4.182,0.000,3.334,0.000,12.802,0.000,0.000,34.240
16358,4.182,0.000,3.334,0.000,12.802,0.000,0.000,34.226
16491,4.182,0.000,3.334,0.000,12.802,0.000,0.000,34.232
16624,4.182,0.000,3.334,0.000,12.802,0.000,0.000,34.242
16757,4.182,0.000,3.334,0.000,12.802,0.000,0.000,34.249
16889,3.921,-3.350,3.334,0.123,12.802,0.486,0.000,35.042
17022,3.881,-3.350,3.334,0.247,12.802,0.968,0.000,35.885
17155,3.840,-3.350,3.334,0.370,12.802,1.446,0.000,36.575
17288,3.796,-3.350,3.334,0.494,12.802,1.919,0.000,37.120
17421,3.753,-3.350,3.334,0.618,12.802,2.386,0.000,37.512
17554,3.713,-3.350,3.334,0.742,12.802,2.848,0.000,37.823
17687,3.677,-3.350,3.334,0.865,12.802,3.305,0.000,38.090
17820,3.642,-3.350,3.334,0.989,12.802,3.758,0.000,38.301
17953,3.605,-3.350,3.334,1.113,12.802,4.207,0.000,38.512
18086,3.567,-3.350,3.334,1.237,12.802,4.651,0.000,38.745
18219,3.528,-3.350,3.334,1.361,12.802,5.090,0.000,38.933
18352,3.490,-3.350,3.334,1.484,12.802,5.524,0.000,39.137
18485,3.455,-3.350,3.334,1.608,12.802,5.954,0.000,39.268
18618,3.422,-3.350,3.334,1.732,12.802,6.379,0.000,39.375
18751,3.392,-3.350,3.334,1.856,12.802,6.801,0.000,39.574
18884,3.363,-3.350,3.334,1.979,12.802,7.219,0.000,39.811
19017,3.336,-3.350,3.334,2.103,12.802,7.633,0.000,39.955
19150,3.310,-3.350,3.334,2.227,12.802,8.045,0.000,40.183
19283,3.280,-3.350,3.334,2.351,12.802,8.453,0.000,40.314
19416,3.246,-3.350,3.334,2.474,12.802,8.856,0.000,40.494
19549,3.206,-3.350,3.334,2.598,12.802,9.256,0.000,40.670
19682,3.162,-3.350,3.334,2.722,12.802,9.650,0.000,40.858
19815,3.110,-3.350,3.334,2.846,12.802,10.038,0.000,41.141
19948,3.044,-3.350,3.334,2.970,12.802,10.419,-0.001,41.494
20081,2.939,-3.350,3.334,3.093,12.802,10.790,-0.001,42.251
20214,2.714,-3.350,3.334,3.217,12.802,11.142,-0.003,43.567
20346,3.080,0.000,3.334,3.268,12.802,11.276,0.001,43.628
20479,3.101,0.000,3.334,3.268,12.802,11.276,0.000,41.445
20612,3.109,0.000,3.334,3.268,12.802,11.276,0.000,39.862
20745,3.114,0.000,3.334,3.268,12.802,11.276,0.000,38.497
20878,3.118,0.000,3.334,3.268,12.802,11.276,0.000,37.503
21011,3.121,0.000,3.334,3.268,12.802,11.276,0.000,36.731
21144,3.123,0.000,3.334,3.268,12.802,11.276,0.000,36.149
21277,3.126,0.000,3.334,3.268,12.802,11.276,0.000,35.677
21410,3.127,0.000,3.334,3.268,12.802,11.276,0.000,35.346
21543,3.129,0.000,3.334,3.268,12.802,11.276,0.000,35.091
21676,3.130,0.000,3.334,3.268,12.802,11.276,0.000,34.914
21809,3.132,0.000,3.334,3.268,12.802,11.276,0.000,34.788
21942,3.133,0.000,3.334,3.268,12.802,11.276,0.000,34.630
22075,3.134,0.000,3.334,3.268,12.802,11.276,0.000,34.565
22208,3.135,0.000,3.334,3.268,12.802,11.276,0.000,34.489
22341,3.136,0.000,3.334,3.268,12.802,11.276,0.000,34.416
22474,3.137,0.000,3.334,3.268,12.802,11.276,0.000,34.364
22607,3.138,0.000,3.334,3.268,12.802,11.276,0.000,34.330
22740,3.139,0.000,3.334,3.268,12.802,11.276,0.000,34.323
22873,3.140,0.000,3.334,3.268,12.802,11.276,0.000,34.305
23006,3.141,0.000,3.334,3.268,12.802,11.276,0.000,34.292
23139,3.142,0.000,3.334,3.268,12.802,11.276,0.000,34.333
23272,3.142,0.000,3.334,3.268,12.802,11.276,0.000,34.263
23405,3.143,0.000,3.334,3.268,12.802,11.276,0.000,34.272
23538,3.144,0.000,3.334,3.268,12.802,11.276,0.000,34.272
23671,3.144,0.000,3.334,3.268,12.802,11.276,0.000,34.191
23804,3.145,0.000,3.334,3.268,12.802,11.276,0.000,34.229
23869,3.145,0.000,3.334,3.268,12.802,11.276,0.000,34.268