File: data/T35/1C/6.csv
time_s,voltage_v,current_a,chargecapacity_ah,dischargecapacity_ah,charge_energy_wh,discharge_energy_wh,voltagedot_v_per_s,temp_degc
1,2.912,0.000,0.000,0.000,0.000,0.000,0.000,34.421
137,2.912,0.000,0.000,0.000,0.000,0.000,0.000,34.419
273,2.913,0.000,0.000,0.000,0.000,0.000,0.000,34.435
409,2.913,0.000,0.000,0.000,0.000,0.000,0.000,34.496
545,2.913,0.000,0.000,0.000,0.000,0.000,0.000,34.450
681,2.914,0.000,0.000,0.000,0.000,0.000,0.000,34.446
817,2.914,0.000,0.000,0.000,0.000,0.000,0.000,34.497
953,2.914,0.000,0.000,0.000,0.000,0.000,0.000,34.486
1089,2.915,0.000,0.000,0.000,0.000,0.000,0.000,34.454
1225,2.915,0.000,0.000,0.000,0.000,0.000,0.000,34.455
1361,2.915,0.000,0.000,0.000,0.000,0.000,0.000,34.446
1497,2.915,0.000,0.000,0.000,0.000,0.000,0.000,34.449
1633,2.916,0.000,0.000,0.000,0.000,0.000,0.000,34.398
1769,2.916,0.000,0.000,0.000,0.000,0.000,0.000,34.451
1905,2.916,0.000,0.000,0.000,0.000,0.000,0.000,34.449
2041,2.917,0.000,0.000,0.000,0.000,0.000,0.000,34.451
2177,2.917,0.000,0.000,0.000,0.000,0.000,0.000,34.429
2313,2.917,0.000,0.000,0.000,0.000,0.000,0.000,34.438
2449,2.918,0.000,0.000,0.000,0.000,0.000,0.000,34.468
2585,2.918,0.000,0.000,0.000,0.000,0.000,0.000,34.476
2721,2.918,0.000,0.000,0.000,0.000,0.000,0.000,34.480
2857,2.918,0.000,0.000,0.000,0.000,0.000,0.000,34.467
2993,2.919,0.000,0.000,0.000,0.000,0.000,0.000,34.424
3129,2.919,0.000,0.000,0.000,0.000,0.000,0.000,34.432
3265,2.919,0.000,0.000,0.000,0.000,0.000,0.000,34.468
3401,2.920,0.000,0.000,0.000,0.000,0.000,0.000,34.446
3537,2.920,0.000,0.000,0.000,0.000,0.000,0.000,34.450
3672,3.313,1.625,0.033,0.000,0.105,0.000,0.002,34.430
3808,3.468,1.625,0.094,0.000,0.314,0.000,0.001,34.524
3944,3.531,1.625,0.155,0.000,0.529,0.000,0.000,34.753
4080,3.543,1.625,0.217,0.000,0.746,0.000,0.000,35.185
4216,3.557,1.625,0.278,0.000,0.964,0.000,0.000,35.575
4352,3.571,1.625,0.340,0.000,1.183,0.000,0.000,35.851
4488,3.586,1.625,0.401,0.000,1.403,0.000,0.000,36.085
4624,3.601,1.625,0.462,0.000,1.624,0.000,0.000,36.286
4760,3.617,1.625,0.524,0.000,1.845,0.000,0.000,36.387
4896,3.635,1.625,0.585,0.000,2.068,0.000,0.000,36.379
5032,3.651,1.625,0.647,0.000,2.291,0.000,0.000,36.352
5168,3.664,1.625,0.708,0.000,2.516,0.000,0.000,36.317
5304,3.677,1.625,0.769,0.000,2.741,0.000,0.000,36.355
5440,3.690,1.625,0.831,0.000,2.968,0.000,0.000,36.356
5576,3.702,1.625,0.892,0.000,3.195,0.000,0.000,36.389
5712,3.716,1.625,0.954,0.000,3.422,0.000,0.000,36.462
5848,3.728,1.625,1.015,0.000,3.651,0.000,0.000,36.476
5984,3.741,1.625,1.076,0.000,3.880,0.000,0.000,36.536
6120,3.754,1.625,1.138,0.000,4.110,0.000,0.000,36.614
6256,3.766,1.625,1.199,0.000,4.341,0.000,0.000,36.703
6392,3.777,1.625,1.261,0.000,4.573,0.000,0.000,36.776
6528,3.788,1.625,1.322,0.000,4.805,0.000,0.000,36.828
6664,3.799,1.625,1.383,0.000,5.038,0.000,0.000,36.920
6800,3.811,1.625,1.445,0.000,5.271,0.000,0.000,36.931
6936,3.824,1.625,1.506,0.000,5.506,0.000,0.000,37.023
7072,3.837,1.625,1.568,0.000,5.741,0.000,0.000,37.016
7208,3.851,1.625,1.629,0.000,5.977,0.000,0.000,37.024
7344,3.866,1.625,1.690,0.000,6.214,0.000,0.000,37.063
7480,3.882,1.625,1.752,0.000,6.452,0.000,0.000,37.156
7616,3.898,1.625,1.813,0.000,6.691,0.000,0.000,37.147
7752,3.915,1.625,1.875,0.000,6.931,0.000,0.000,37.150
7888,3.933,1.625,1.936,0.000,7.172,0.000,0.000,37.147
8024,3.951,1.625,1.997,0.000,7.414,0.000,0.000,37.166
8160,3.968,1.625,2.059,0.000,7.657,0.000,0.000,37.206
8296,3.986,1.625,2.120,0.000,7.901,0.000,0.000,37.200
8432,4.004,1.625,2.182,0.000,8.146,0.000,0.000,37.219
8568,4.021,1.625,2.243,0.000,8.393,0.000,0.000,37.186
8704,4.038,1.625,2.304,0.000,8.640,0.000,0.000,37.205
8840,4.056,1.625,2.366,0.000,8.888,0.000,0.000,37.121
8976,4.073,1.625,2.427,0.000,9.138,0.000,0.000,37.183
9112,4.093,1.625,2.489,0.000,9.389,0.000,0.000,37.162
9248,4.112,1.625,2.550,0.000,9.641,0.000,0.000,37.202
9384,4.132,1.625,2.611,0.000,9.894,0.000,0.000,37.180
9520,4.154,1.625,2.673,0.000,10.148,0.000,0.000,37.190
9656,4.177,1.625,2.734,0.000,10.404,0.000,0.000,37.247
9792,4.200,1.606,2.795,0.000,10.660,0.000,0.000,37.322
9928,4.200,1.390,2.852,0.000,10.896,0.000,0.000,37.304
10064,4.200,1.229,2.901,0.000,11.104,0.000,0.000,37.207
10200,4.200,1.093,2.945,0.000,11.287,0.000,0.000,37.041
10336,4.200,0.980,2.984,0.000,11.452,0.000,0.000,36.792
10472,4.200,0.886,3.019,0.000,11.599,0.000,0.000,36.613
10608,4.200,0.806,3.051,0.000,11.733,0.000,0.000,36.407
10744,4.200,0.737,3.080,0.000,11.856,0.000,0.000,36.204
10880,4.200,0.674,3.107,0.000,11.967,0.000,0.000,36.048
11016,4.200,0.617,3.131,0.000,12.070,0.000,0.000,35.843
11152,4.200,0.564,3.153,0.000,12.163,0.000,0.000,35.697
11288,4.200,0.514,3.174,0.000,12.249,0.000,0.000,35.555
11424,4.200,0.466,3.192,0.000,12.327,0.000,0.000,35.475
11560,4.200,0.422,3.209,0.000,12.397,0.000,0.000,35.351
11696,4.200,0.380,3.224,0.000,12.460,0.000,0.000,35.275
11832,4.200,0.341,3.238,0.000,12.517,0.000,0.000,35.162
11968,4.200,0.305,3.250,0.000,12.569,0.000,0.000,35.089
12104,4.200,0.272,3.261,0.000,12.614,0.000,0.000,34.979
12240,4.200,0.242,3.270,0.000,12.655,0.000,0.000,34.954
12376,4.200,0.214,3.279,0.000,12.691,0.000,0.000,34.879
12512,4.200,0.190,3.287,0.000,12.723,0.000,0.000,34.803
12648,4.200,0.169,3.293,0.000,12.752,0.000,0.000,34.786
12784,4.200,0.149,3.299,0.000,12.777,0.000,0.000,34.762
12920,4.200,0.133,3.305,0.000,12.799,0.000,0.000,34.720
13056,4.200,0.118,3.309,0.000,12.819,0.000,0.000,34.701
13192,4.200,0.105,3.314,0.000,12.837,0.000,0.000,34.636
13328,4.200,0.093,3.317,0.000,12.852,0.000,0.000,34.622
13464,4.200,0.083,3.321,0.000,12.866,0.000,0.000,34.582
13600,4.200,0.074,3.324,0.000,12.879,0.000,0.000,34.566
13736,4.200,0.067,3.326,0.000,12.890,0.000,0.000,34.539
13871,4.192,0.000,3.327,0.000,12.892,0.000,0.000,34.552
14007,4.191,0.000,3.327,0.000,12.892,0.000,0.000,34.518
14143,4.189,0.000,3.327,0.000,12.892,0.000,0.000,34.554
14279,4.188,0.000,3.327,0.000,12.892,0.000,0.000,34.513
14415,4.188,0.000,3.327,0.000,12.892,0.000,0.000,34.511
14551,4.187,0.000,3.327,0.000,12.892,0.000,0.000,34.499
14687,4.186,0.000,3.327,0.000,12.892,0.000,0.000,34.526
14823,4.186,0.000,3.327,0.000,12.892,0.000,0.000,34.502
14959,4.185,0.000,3.327,0.000,12.892,0.000,0.000,34.519
15095,4.185,0.000,3.327,0.000,12.892,0.000,0.000,34.469
15231,4.185,0.000,3.327,0.000,12.892,0.000,0.000,34.499
15367,4.184,0.000,3.327,0.000,12.892,0.000,0.000,34.486
15503,4.184,0.000,3.327,0.000,12.892,0.000,0.000,34.527
15639,4.183,0.000,3.327,0.000,12.892,0.000,0.000,34.463
15775,4.183,0.000,3.327,0.000,12.892,0.000,0.000,34.468
15911,4.183,0.000,3.327,0.000,12.892,0.000,0.000,34.451
16047,4.183,0.000,3.327,0.000,12.892,0.000,0.000,34.508
16183,4.182,0.000,3.327,0.000,12.892,0.000,0.000,34.502
16319,4.182,0.000,3.327,0.000,12.892,0.000,0.000,34.464
16455,4.182,0.000,3.327,0.000,12.892,0.000,0.000,34.451
16591,4.182,0.000,3.327,0.000,12.892,0.000,0.000,34.431
16727,4.182,0.000,3.327,0.000,12.892,0.000,0.000,34.470
16863,4.181,0.000,3.327,0.000,12.892,0.000,0.000,34.513
16999,4.181,0.000,3.327,0.000,12.892,0.000,0.000,34.495
17135,4.181,0.000,3.327,0.000,12.892,0.000,0.000,34.460
17271,4.181,0.000,3.327,0.000,12.892,0.000,0.000,34.496
17406,3.862,-3.350,3.327,0.044,12.892,0.170,-0.001,34.788
17542,3.808,-3.350,3.327,0.170,12.892,0.655,0.000,35.900
17678,3.767,-3.350,3.327,0.297,12.892,1.134,0.000,36.838
17814,3.723,-3.350,3.327,0.423,12.892,1.608,-0.001,37.583
17950,3.676,-3.350,3.327,0.550,12.892,2.077,0.000,38.025
18086,3.633,-3.350,3.327,0.677,12.892,2.539,0.000,38.503
18222,3.594,-3.350,3.327,0.803,12.892,2.996,0.000,38.812
18358,3.557,-3.350,3.327,0.930,12.892,3.449,0.000,39.105
18494,3.519,-3.350,3.327,1.056,12.892,3.897,0.000,39.450
18630,3.480,-3.350,3.327,1.183,12.892,4.340,0.000,39.777
18766,3.440,-3.350,3.327,1.309,12.892,4.778,0.000,40.059
18902,3.400,-3.350,3.327,1.436,12.892,5.210,0.000,40.220
19038,3.363,-3.350,3.327,1.563,12.892,5.638,0.000,40.570
19174,3.329,-3.350,3.327,1.689,12.892,6.062,0.000,40.756
19310,3.298,-3.350,3.327,1.816,12.892,6.481,0.000,40.947
19446,3.269,-3.350,3.327,1.942,12.892,6.897,0.000,41.243
19582,3.242,-3.350,3.327,2.069,12.892,7.309,0.000,41.397
19718,3.215,-3.350,3.327,2.195,12.892,7.717,0.000,41.659
19854,3.185,-3.350,3.327,2.322,12.892,8.122,0.000,41.894
19990,3.151,-3.350,3.327,2.449,12.892,8.523,0.000,41.932
20126,3.111,-3.350,3.327,2.575,12.892,8.920,-0.001,42.198
20262,3.066,-3.350,3.327,2.702,12.892,9.311,0.000,42.433
20398,3.015,-3.350,3.327,2.828,12.892,9.696,-0.001,42.734
20534,2.952,-3.350,3.327,2.955,12.892,10.073,0.000,43.167
20670,2.858,-3.350,3.327,3.081,12.892,10.442,-0.001,43.868
20806,2.667,-3.350,3.327,3.208,12.892,10.793,-0.003,45.106
20941,3.095,0.000,3.327,3.257,12.892,10.921,0.000,44.949
21077,3.115,0.000,3.327,3.257,12.892,10.921,0.000,42.702
21213,3.122,0.000,3.327,3.257,12.892,10.921,0.000,40.959
21349,3.126,0.000,3.327,3.257,12.892,10.921,0.000,39.481
21485,3.130,0.000,3.327,3.257,12.892,10.921,0.000,38.416
21621,3.132,0.000,3.327,3.257,12.892,10.921,0.000,37.547
21757,3.134,0.000,3.327,3.257,12.892,10.921,0.000,36.865
21893,3.136,0.000,3.327,3.257,12.892,10.921,0.000,36.382
22029,3.138,0.000,3.327,3.257,12.892,10.921,0.000,35.927
22165,3.139,0.000,3.327,3.257,12.892,10.921,0.000,35.617
22301,3.140,0.000,3.327,3.257,12.892,10.921,0.000,35.413
22437,3.141,0.000,3.327,3.257,12.892,10.921,0.000,35.176
22573,3.142,0.000,3.327,3.257,12.892,10.921,0.000,35.023
22709,3.143,0.000,3.327,3.257,12.892,10.921,0.000,34.917
22845,3.144,0.000,3.327,3.257,12.892,10.921,0.000,34.843
22981,3.145,0.000,3.327,3.257,12.892,10.921,0.000,34.743
23117,3.146,0.000,3.327,3.257,12.892,10.921,0.000,34.721
23253,3.146,0.000,3.327,3.257,12.892,10.921,0.000,34.672
23389,3.147,0.000,3.327,3.257,12.892,10.921,0.000,34.577
23525,3.148,0.000,3.327,3.257,12.892,10.921,0.000,34.603
23661,3.148,0.000,3.327,3.257,12.892,10.921,0.000,34.542
23797,3.149,0.000,3.327,3.257,12.892,10.921,0.000,34.520
23933,3.149,0.000,3.327,3.257,12.892,10.921,0.000,34.535
24069,3.150,0.000,3.327,3.257,12.892,10.921,0.000,34.512
24205,3.150,0.000,3.327,3.257,12.892,10.921,0.000,34.541
24341,3.151,0.000,3.327,3.257,12.892,10.921,0.000,34.492
24459,3.151,0.000,3.327,3.257,12.892,10.921,0.000,34.456