File: data/T35/5C/1.csv
time_s,voltage_v,current_a,chargecapacity_ah,dischargecapacity_ah,charge_energy_wh,discharge_energy_wh,voltagedot_v_per_s,temp_degc
1,3.354,0.000,0.000,0.000,0.000,0.000,0.000,34.021
90,3.505,1.625,0.014,0.000,0.047,0.001,0.000,33.983
180,3.527,1.625,0.054,0.000,0.190,0.001,0.000,34.113
270,3.545,1.625,0.095,0.000,0.334,0.001,0.000,34.522
360,3.561,1.625,0.135,0.000,0.478,0.001,0.000,34.761
450,3.576,1.625,0.176,0.000,0.623,0.001,0.000,35.002
540,3.590,1.625,0.217,0.000,0.769,0.001,0.000,35.055
630,3.605,1.625,0.257,0.000,0.915,0.001,0.000,35.135
720,3.617,1.625,0.298,0.000,1.062,0.001,0.000,35.180
810,3.628,1.625,0.339,0.000,1.209,0.001,0.000,35.217
900,3.637,1.625,0.379,0.000,1.356,0.001,0.000,35.239
990,3.645,1.625,0.420,0.000,1.504,0.001,0.000,35.329
1080,3.653,1.625,0.460,0.000,1.653,0.001,0.000,35.340
1170,3.661,1.625,0.501,0.000,1.801,0.001,0.000,35.341
1260,3.670,1.625,0.542,0.000,1.950,0.001,0.000,35.405
1350,3.678,1.625,0.582,0.000,2.099,0.001,0.000,35.440
1440,3.686,1.625,0.623,0.000,2.249,0.001,0.000,35.515
1530,3.695,1.625,0.664,0.000,2.399,0.001,0.000,35.542
1620,3.703,1.625,0.704,0.000,2.549,0.001,0.000,35.568
1710,3.712,1.625,0.745,0.000,2.700,0.001,0.000,35.572
1800,3.720,1.625,0.785,0.000,2.851,0.001,0.000,35.611
1890,3.728,1.625,0.826,0.000,3.002,0.001,0.000,35.665
1980,3.736,1.625,0.867,0.000,3.154,0.001,0.000,35.729
2070,3.744,1.625,0.907,0.000,3.306,0.001,0.000,35.742
2160,3.751,1.625,0.948,0.000,3.458,0.001,0.000,35.739
2250,3.759,1.625,0.989,0.000,3.611,0.001,0.000,35.776
2340,3.766,1.625,1.029,0.000,3.763,0.001,0.000,35.744
2430,3.774,1.625,1.070,0.000,3.917,0.001,0.000,35.798
2520,3.782,1.625,1.111,0.000,4.070,0.001,0.000,35.818
2610,3.790,1.625,1.151,0.000,4.224,0.001,0.000,35.800
2700,3.799,1.625,1.192,0.000,4.378,0.001,0.000,35.797
2790,3.808,1.625,1.232,0.000,4.533,0.001,0.000,35.825
2880,3.817,1.625,1.273,0.000,4.688,0.001,0.000,35.833
2970,3.827,1.625,1.314,0.000,4.843,0.001,0.000,35.818
3060,3.837,1.625,1.354,0.000,4.998,0.001,0.000,35.868
3150,3.847,1.625,1.395,0.000,5.155,0.001,0.000,35.826
3240,3.858,1.625,1.436,0.000,5.311,0.001,0.000,35.871
3330,3.869,1.625,1.476,0.000,5.468,0.001,0.000,35.870
3420,3.880,1.625,1.517,0.000,5.625,0.001,0.000,35.789
3510,3.891,1.625,1.557,0.000,5.783,0.001,0.000,35.860
3600,3.903,1.625,1.598,0.000,5.942,0.001,0.000,35.842
3690,3.914,1.625,1.639,0.000,6.100,0.001,0.000,35.848
3780,3.926,1.625,1.679,0.000,6.260,0.001,0.000,35.816
3870,3.938,1.625,1.720,0.000,6.419,0.001,0.000,35.807
3960,3.949,1.625,1.761,0.000,6.580,0.001,0.000,35.785
4050,3.961,1.625,1.801,0.000,6.740,0.001,0.000,35.791
4140,3.973,1.625,1.842,0.000,6.902,0.001,0.000,35.788
4230,3.984,1.625,1.882,0.000,7.063,0.001,0.000,35.822
4320,3.996,1.625,1.923,0.000,7.225,0.001,0.000,35.765
4410,4.007,1.625,1.964,0.000,7.388,0.001,0.000,35.784
4500,4.018,1.625,2.004,0.000,7.551,0.001,0.000,35.758
4590,4.030,1.625,2.045,0.000,7.714,0.001,0.000,35.744
4680,4.041,1.625,2.086,0.000,7.878,0.001,0.000,35.754
4770,4.053,1.625,2.126,0.000,8.043,0.001,0.000,35.784
4860,4.065,1.625,2.167,0.000,8.208,0.001,0.000,35.807
4950,4.078,1.625,2.207,0.000,8.373,0.001,0.000,35.825
5040,4.091,1.625,2.248,0.000,8.539,0.001,0.000,35.817
5130,4.105,1.625,2.289,0.000,8.705,0.001,0.000,35.802
5220,4.119,1.625,2.329,0.000,8.872,0.001,0.000,35.846
5310,4.135,1.625,2.370,0.000,9.040,0.001,0.000,35.813
5400,4.151,1.625,2.411,0.000,9.208,0.001,0.000,35.875
5490,4.166,1.625,2.451,0.000,9.377,0.001,0.000,35.874
5580,4.183,1.625,2.492,0.000,9.547,0.001,0.000,35.909
5670,4.199,1.625,2.532,0.000,9.717,0.001,0.000,35.940
5760,4.200,1.442,2.571,0.000,9.877,0.001,0.000,35.917
5850,4.200,1.309,2.605,0.000,10.021,0.001,0.000,35.907
5940,4.200,1.199,2.636,0.000,10.153,0.001,0.000,35.829
6030,4.200,1.104,2.665,0.000,10.274,0.001,0.000,35.735
6120,4.200,1.024,2.692,0.000,10.385,0.001,0.000,35.603
6210,4.200,0.951,2.716,0.000,10.489,0.001,0.000,35.581
6300,4.200,0.885,2.739,0.000,10.585,0.001,0.000,35.451
6390,4.200,0.825,2.761,0.000,10.675,0.001,0.000,35.362
6480,4.200,0.770,2.780,0.000,10.759,0.001,0.000,35.320
6570,4.200,0.717,2.799,0.000,10.837,0.001,0.000,35.268
6660,4.200,0.668,2.816,0.000,10.909,0.001,0.000,35.236
6750,4.200,0.620,2.832,0.000,10.977,0.001,0.000,35.196
6840,4.200,0.575,2.847,0.000,11.040,0.001,0.000,35.133
6930,4.200,0.532,2.861,0.000,11.098,0.001,0.000,35.058
7020,4.200,0.491,2.874,0.000,11.152,0.001,0.000,35.042
7110,4.200,0.453,2.886,0.000,11.201,0.001,0.000,34.990
7200,4.200,0.416,2.897,0.000,11.247,0.001,0.000,35.003
7290,4.200,0.382,2.907,0.000,11.289,0.001,0.000,34.914
7380,4.200,0.350,2.916,0.000,11.327,0.001,0.000,34.847
7470,4.200,0.320,2.924,0.000,11.362,0.001,0.000,34.826
7560,4.200,0.293,2.932,0.000,11.394,0.001,0.000,34.857
7650,4.200,0.267,2.939,0.000,11.424,0.001,0.000,34.820
7740,4.200,0.243,2.945,0.000,11.450,0.001,0.000,34.784
7830,4.200,0.222,2.951,0.000,11.475,0.001,0.000,34.774
7920,4.200,0.202,2.956,0.000,11.497,0.001,0.000,34.773
8010,4.200,0.184,2.961,0.000,11.517,0.001,0.000,34.716
8100,4.200,0.168,2.965,0.000,11.536,0.001,0.000,34.738
8190,4.200,0.153,2.969,0.000,11.552,0.001,0.000,34.737
8280,4.200,0.139,2.973,0.000,11.568,0.001,0.000,34.683
8370,4.200,0.128,2.976,0.000,11.582,0.001,0.000,34.736
8460,4.200,0.116,2.979,0.000,11.595,0.001,0.000,34.696
8550,4.200,0.107,2.982,0.000,11.606,0.001,0.000,34.729
8640,4.200,0.098,2.985,0.000,11.617,0.001,0.000,34.708
8730,4.200,0.090,2.987,0.000,11.627,0.001,0.000,34.714
8820,4.200,0.083,2.989,0.000,11.636,0.001,0.000,34.652
8910,4.200,0.077,2.991,0.000,11.644,0.001,0.000,34.682
9000,4.200,0.070,2.993,0.000,11.652,0.001,0.000,34.701
9089,4.196,0.000,2.995,0.000,11.658,0.001,0.000,34.689
9179,4.193,0.000,2.995,0.000,11.658,0.001,0.000,34.690
9269,4.192,0.000,2.995,0.000,11.658,0.001,0.000,34.682
9359,4.191,0.000,2.995,0.000,11.658,0.001,0.000,34.664
9449,4.191,0.000,2.995,0.000,11.658,0.001,0.000,34.700
9539,4.190,0.000,2.995,0.000,11.658,0.001,0.000,34.675
9629,4.189,0.000,2.995,0.000,11.658,0.001,0.000,34.708
9719,4.189,0.000,2.995,0.000,11.658,0.001,0.000,34.626
9809,4.188,0.000,2.995,0.000,11.658,0.001,0.000,34.637
9899,4.188,0.000,2.995,0.000,11.658,0.001,0.000,34.648
9989,4.187,0.000,2.995,0.000,11.658,0.001,0.000,34.630
10079,4.187,0.000,2.995,0.000,11.658,0.001,0.000,34.654
10169,4.187,0.000,2.995,0.000,11.658,0.001,0.000,34.628
10259,4.186,0.000,2.995,0.000,11.658,0.001,0.000,34.640
10349,4.186,0.000,2.995,0.000,11.658,0.001,0.000,34.659
10439,4.186,0.000,2.995,0.000,11.658,0.001,0.000,34.613
10529,4.186,0.000,2.995,0.000,11.658,0.001,0.000,34.632
10619,4.185,0.000,2.995,0.000,11.658,0.001,0.000,34.649
10709,4.185,0.000,2.995,0.000,11.658,0.001,0.000,34.631
10799,4.185,0.000,2.995,0.000,11.658,0.001,0.000,34.693
10889,4.185,0.000,2.995,0.000,11.658,0.001,0.000,34.638
10979,4.184,0.000,2.995,0.000,11.658,0.001,0.000,34.656
11069,4.184,0.000,2.995,0.000,11.658,0.001,0.000,34.643
11159,4.184,0.000,2.995,0.000,11.658,0.001,0.000,34.607
11249,4.184,0.000,2.995,0.000,11.658,0.001,0.000,34.625
11339,4.184,0.000,2.995,0.000,11.658,0.001,0.000,34.645
11429,4.184,0.000,2.995,0.000,11.658,0.001,0.000,34.656
11519,4.183,0.000,2.995,0.000,11.658,0.001,0.000,34.644
11609,4.183,0.000,2.995,0.000,11.658,0.001,0.000,34.660
11699,4.183,0.000,2.995,0.000,11.658,0.001,0.000,34.696
11789,4.183,0.000,2.995,0.000,11.658,0.001,0.000,34.643
11879,4.183,0.000,2.995,0.000,11.658,0.001,0.000,34.662
11969,4.183,0.000,2.995,0.000,11.658,0.001,0.000,34.673
12059,4.182,0.000,2.995,0.000,11.658,0.001,0.000,34.662
12149,4.182,0.000,2.995,0.000,11.658,0.001,0.000,34.644
12239,4.182,0.000,2.995,0.000,11.658,0.001,0.000,34.620
12329,4.182,0.000,2.995,0.000,11.658,0.001,0.000,34.652
12419,4.182,0.000,2.995,0.000,11.658,0.001,0.000,34.651
12509,4.182,0.000,2.995,0.000,11.658,0.001,0.000,34.688
12599,4.182,0.000,2.995,0.000,11.658,0.001,0.000,34.655
12688,3.143,-16.751,2.995,0.037,11.658,0.120,-0.012,35.044
12778,4.077,0.000,2.995,0.179,11.658,0.544,0.001,41.197
12868,4.097,0.000,2.995,0.179,11.658,0.544,0.000,39.308
12958,4.100,0.000,2.995,0.179,11.658,0.544,0.000,37.933
13048,4.101,0.000,2.995,0.179,11.658,0.544,0.000,37.047
13138,4.101,0.000,2.995,0.179,11.658,0.544,0.000,36.432
13228,4.101,0.000,2.995,0.179,11.658,0.544,0.000,35.928
13318,4.102,0.000,2.995,0.179,11.658,0.544,0.000,35.614
13408,4.102,0.000,2.995,0.179,11.658,0.544,0.000,35.365
13498,4.102,0.000,2.995,0.179,11.658,0.544,0.000,35.182
13588,4.102,0.000,2.995,0.179,11.658,0.544,0.000,35.060
13678,4.102,0.000,2.995,0.179,11.658,0.544,0.000,34.955
13768,4.102,0.000,2.995,0.179,11.658,0.544,0.000,34.884
13858,4.102,0.000,2.995,0.179,11.658,0.544,0.000,34.855
13948,4.102,0.000,2.995,0.179,11.658,0.544,0.000,34.774
14038,4.102,0.000,2.995,0.179,11.658,0.544,0.000,34.775
14128,4.102,0.000,2.995,0.179,11.658,0.544,0.000,34.714
14218,4.102,0.000,2.995,0.179,11.658,0.544,0.000,34.728
14308,4.102,0.000,2.995,0.179,11.658,0.544,0.000,34.727
14398,4.103,0.000,2.995,0.179,11.658,0.544,0.000,34.707
14488,4.103,0.000,2.995,0.179,11.658,0.544,0.000,34.696
14578,4.103,0.000,2.995,0.179,11.658,0.544,0.000,34.677
14668,4.103,0.000,2.995,0.179,11.658,0.544,0.000,34.677
14758,4.103,0.000,2.995,0.179,11.658,0.544,0.000,34.659
14848,4.103,0.000,2.995,0.179,11.658,0.544,0.000,34.660
14938,4.103,0.000,2.995,0.179,11.658,0.544,0.000,34.681
15028,4.103,0.000,2.995,0.179,11.658,0.544,0.000,34.593
15118,4.103,0.000,2.995,0.179,11.658,0.544,0.000,34.658
15208,4.103,0.000,2.995,0.179,11.658,0.544,0.000,34.658
15298,4.103,0.000,2.995,0.179,11.658,0.544,0.000,34.661
15388,4.103,0.000,2.995,0.179,11.658,0.544,0.000,34.664
15478,4.103,0.000,2.995,0.179,11.658,0.544,0.000,34.625
15568,4.103,0.000,2.995,0.179,11.658,0.544,0.000,34.616
15658,4.103,0.000,2.995,0.179,11.658,0.544,0.000,34.682
15748,4.103,0.000,2.995,0.179,11.658,0.544,0.000,34.673
15838,4.103,0.000,2.995,0.179,11.658,0.544,0.000,34.659
15928,4.103,0.000,2.995,0.179,11.658,0.544,0.000,34.638
16018,4.103,0.000,2.995,0.179,11.658,0.544,0.000,34.720
16108,4.103,0.000,2.995,0.179,11.658,0.544,0.000,34.673
16198,4.103,0.000,2.995,0.179,11.658,0.544,0.000,34.659
16288,4.103,0.000,2.995,0.179,11.658,0.544,0.000,34.703
16319,4.103,0.000,2.995,0.179,11.658,0.544,0.000,34.674