File: data/T35/5C/3.csv
time_s,voltage_v,current_a,chargecapacity_ah,dischargecapacity_ah,charge_energy_wh,discharge_energy_wh,voltagedot_v_per_s,temp_degc
1,3.424,0.000,0.000,0.000,0.000,0.000,0.000,34.625
89,3.568,1.625,0.013,0.000,0.047,0.000,0.001,34.717
178,3.597,1.625,0.053,0.000,0.191,0.000,0.000,34.850
267,3.615,1.625,0.093,0.000,0.336,0.000,0.000,34.937
356,3.629,1.625,0.134,0.000,0.481,0.000,0.000,35.006
445,3.640,1.625,0.174,0.000,0.627,0.000,0.000,35.117
534,3.649,1.625,0.214,0.000,0.774,0.000,0.000,35.171
623,3.657,1.625,0.254,0.000,0.920,0.000,0.000,35.287
712,3.665,1.625,0.294,0.000,1.067,0.000,0.000,35.339
801,3.674,1.625,0.335,0.000,1.215,0.000,0.000,35.366
890,3.682,1.625,0.375,0.000,1.363,0.000,0.000,35.423
979,3.690,1.625,0.415,0.000,1.511,0.000,0.000,35.477
1068,3.699,1.625,0.455,0.000,1.659,0.000,0.000,35.541
1157,3.707,1.625,0.495,0.000,1.808,0.000,0.000,35.610
1246,3.715,1.625,0.535,0.000,1.957,0.000,0.000,35.683
1335,3.724,1.625,0.576,0.000,2.107,0.000,0.000,35.709
1424,3.732,1.625,0.616,0.000,2.256,0.000,0.000,35.702
1513,3.740,1.625,0.656,0.000,2.406,0.000,0.000,35.756
1602,3.748,1.625,0.696,0.000,2.557,0.000,0.000,35.819
1691,3.755,1.625,0.736,0.000,2.708,0.000,0.000,35.807
1780,3.763,1.625,0.777,0.000,2.859,0.000,0.000,35.871
1869,3.770,1.625,0.817,0.000,3.010,0.000,0.000,35.867
1958,3.778,1.625,0.857,0.000,3.162,0.000,0.000,35.895
2047,3.785,1.625,0.897,0.000,3.314,0.000,0.000,35.953
2136,3.793,1.625,0.937,0.000,3.466,0.000,0.000,35.948
2225,3.801,1.625,0.977,0.000,3.618,0.000,0.000,35.914
2314,3.809,1.625,1.018,0.000,3.771,0.000,0.000,35.961
2403,3.818,1.625,1.058,0.000,3.925,0.000,0.000,35.938
2492,3.827,1.625,1.098,0.000,4.078,0.000,0.000,35.959
2581,3.837,1.625,1.138,0.000,4.232,0.000,0.000,35.949
2670,3.846,1.625,1.178,0.000,4.386,0.000,0.000,35.978
2759,3.857,1.625,1.218,0.000,4.541,0.000,0.000,35.973
2848,3.867,1.625,1.259,0.000,4.696,0.000,0.000,35.959
2937,3.878,1.625,1.299,0.000,4.852,0.000,0.000,35.936
3026,3.890,1.625,1.339,0.000,5.008,0.000,0.000,35.941
3115,3.901,1.625,1.379,0.000,5.165,0.000,0.000,35.953
3204,3.912,1.625,1.419,0.000,5.322,0.000,0.000,35.932
3293,3.924,1.625,1.460,0.000,5.479,0.000,0.000,35.950
3382,3.936,1.625,1.500,0.000,5.637,0.000,0.000,35.960
3471,3.948,1.625,1.540,0.000,5.795,0.000,0.000,35.945
3560,3.960,1.625,1.580,0.000,5.954,0.000,0.000,35.917
3649,3.972,1.625,1.620,0.000,6.113,0.000,0.000,35.912
3738,3.984,1.625,1.660,0.000,6.273,0.000,0.000,35.883
3827,3.995,1.625,1.701,0.000,6.434,0.000,0.000,35.847
3916,4.007,1.625,1.741,0.000,6.594,0.000,0.000,35.879
4005,4.018,1.625,1.781,0.000,6.756,0.000,0.000,35.873
4094,4.029,1.625,1.821,0.000,6.917,0.000,0.000,35.828
4183,4.041,1.625,1.861,0.000,7.079,0.000,0.000,35.779
4272,4.052,1.625,1.902,0.000,7.242,0.000,0.000,35.808
4361,4.064,1.625,1.942,0.000,7.405,0.000,0.000,35.823
4450,4.076,1.625,1.982,0.000,7.569,0.000,0.000,35.826
4539,4.089,1.625,2.022,0.000,7.733,0.000,0.000,35.876
4628,4.102,1.625,2.062,0.000,7.897,0.000,0.000,35.855
4717,4.116,1.625,2.102,0.000,8.062,0.000,0.000,35.912
4806,4.130,1.625,2.143,0.000,8.228,0.000,0.000,35.897
4895,4.145,1.625,2.183,0.000,8.394,0.000,0.000,35.943
4984,4.161,1.625,2.223,0.000,8.561,0.000,0.000,35.945
5073,4.177,1.625,2.263,0.000,8.728,0.000,0.000,35.979
5162,4.194,1.625,2.303,0.000,8.897,0.000,0.000,35.996
5251,4.200,1.504,2.343,0.000,9.061,0.000,0.000,36.044
5340,4.200,1.365,2.378,0.000,9.210,0.000,0.000,35.984
5429,4.200,1.251,2.410,0.000,9.346,0.000,0.000,35.953
5518,4.200,1.152,2.440,0.000,9.470,0.000,0.000,35.817
5607,4.200,1.065,2.467,0.000,9.585,0.000,0.000,35.732
5696,4.200,0.989,2.493,0.000,9.692,0.000,0.000,35.654
5785,4.200,0.920,2.516,0.000,9.791,0.000,0.000,35.562
5874,4.200,0.861,2.538,0.000,9.883,0.000,0.000,35.478
5963,4.200,0.806,2.559,0.000,9.969,0.000,0.000,35.372
6052,4.200,0.756,2.578,0.000,10.050,0.000,0.000,35.326
6141,4.200,0.707,2.596,0.000,10.126,0.000,0.000,35.300
6230,4.200,0.663,2.613,0.000,10.198,0.000,0.000,35.209
6319,4.200,0.621,2.629,0.000,10.264,0.000,0.000,35.155
6408,4.200,0.581,2.644,0.000,10.327,0.000,0.000,35.100
6497,4.200,0.542,2.658,0.000,10.385,0.000,0.000,35.025
6586,4.200,0.504,2.671,0.000,10.439,0.000,0.000,35.042
6675,4.200,0.470,2.683,0.000,10.490,0.000,0.000,34.949
6764,4.200,0.435,2.694,0.000,10.537,0.000,0.000,34.934
6853,4.200,0.403,2.704,0.000,10.580,0.000,0.000,34.914
6942,4.200,0.372,2.714,0.000,10.620,0.000,0.000,34.850
7031,4.200,0.343,2.723,0.000,10.657,0.000,0.000,34.826
7120,4.200,0.317,2.731,0.000,10.692,0.000,0.000,34.769
7209,4.200,0.291,2.738,0.000,10.723,0.000,0.000,34.779
7298,4.200,0.268,2.745,0.000,10.752,0.000,0.000,34.795
7387,4.200,0.246,2.752,0.000,10.779,0.000,0.000,34.706
7476,4.200,0.225,2.757,0.000,10.803,0.000,0.000,34.740
7565,4.200,0.207,2.763,0.000,10.826,0.000,0.000,34.734
7654,4.200,0.190,2.768,0.000,10.846,0.000,0.000,34.707
7743,4.200,0.174,2.772,0.000,10.865,0.000,0.000,34.707
7832,4.200,0.159,2.776,0.000,10.883,0.000,0.000,34.650
7921,4.200,0.146,2.780,0.000,10.898,0.000,0.000,34.699
8010,4.200,0.135,2.783,0.000,10.913,0.000,0.000,34.647
8099,4.200,0.123,2.787,0.000,10.926,0.000,0.000,34.617
8188,4.200,0.114,2.790,0.000,10.939,0.000,0.000,34.663
8277,4.200,0.104,2.792,0.000,10.950,0.000,0.000,34.624
8366,4.200,0.096,2.795,0.000,10.960,0.000,0.000,34.591
8455,4.200,0.089,2.797,0.000,10.970,0.000,0.000,34.640
8544,4.200,0.082,2.799,0.000,10.979,0.000,0.000,34.614
8633,4.200,0.075,2.801,0.000,10.987,0.000,0.000,34.607
8722,4.200,0.070,2.803,0.000,10.994,0.000,0.000,34.613
8811,4.195,0.000,2.804,0.000,11.000,0.000,0.000,34.567
8900,4.193,0.000,2.804,0.000,11.000,0.000,0.000,34.615
8989,4.191,0.000,2.804,0.000,11.000,0.000,0.000,34.556
9078,4.191,0.000,2.804,0.000,11.000,0.000,0.000,34.569
9167,4.190,0.000,2.804,0.000,11.000,0.000,0.000,34.583
9256,4.189,0.000,2.804,0.000,11.000,0.000,0.000,34.567
9345,4.189,0.000,2.804,0.000,11.000,0.000,0.000,34.570
9434,4.188,0.000,2.804,0.000,11.000,0.000,0.000,34.544
9523,4.188,0.000,2.804,0.000,11.000,0.000,0.000,34.582
9612,4.187,0.000,2.804,0.000,11.000,0.000,0.000,34.552
9701,4.187,0.000,2.804,0.000,11.000,0.000,0.000,34.550
9790,4.187,0.000,2.804,0.000,11.000,0.000,0.000,34.577
9879,4.186,0.000,2.804,0.000,11.000,0.000,0.000,34.595
9968,4.186,0.000,2.804,0.000,11.000,0.000,0.000,34.529
10057,4.186,0.000,2.804,0.000,11.000,0.000,0.000,34.570
10146,4.185,0.000,2.804,0.000,11.000,0.000,0.000,34.555
10235,4.185,0.000,2.804,0.000,11.000,0.000,0.000,34.589
10324,4.185,0.000,2.804,0.000,11.000,0.000,0.000,34.549
10413,4.185,0.000,2.804,0.000,11.000,0.000,0.000,34.543
10502,4.185,0.000,2.804,0.000,11.000,0.000,0.000,34.548
10591,4.184,0.000,2.804,0.000,11.000,0.000,0.000,34.565
10680,4.184,0.000,2.804,0.000,11.000,0.000,0.000,34.576
10769,4.184,0.000,2.804,0.000,11.000,0.000,0.000,34.556
10858,4.184,0.000,2.804,0.000,11.000,0.000,0.000,34.609
10947,4.184,0.000,2.804,0.000,11.000,0.000,0.000,34.592
11036,4.183,0.000,2.804,0.000,11.000,0.000,0.000,34.570
11125,4.183,0.000,2.804,0.000,11.000,0.000,0.000,34.536
11214,4.183,0.000,2.804,0.000,11.000,0.000,0.000,34.578
11303,4.183,0.000,2.804,0.000,11.000,0.000,0.000,34.580
11392,4.183,0.000,2.804,0.000,11.000,0.000,0.000,34.525
11481,4.183,0.000,2.804,0.000,11.000,0.000,0.000,34.541
11570,4.183,0.000,2.804,0.000,11.000,0.000,0.000,34.532
11659,4.183,0.000,2.804,0.000,11.000,0.000,0.000,34.578
11748,4.182,0.000,2.804,0.000,11.000,0.000,0.000,34.527
11837,4.182,0.000,2.804,0.000,11.000,0.000,0.000,34.571
11926,4.182,0.000,2.804,0.000,11.000,0.000,0.000,34.533
12015,4.182,0.000,2.804,0.000,11.000,0.000,0.000,34.555
12104,4.182,0.000,2.804,0.000,11.000,0.000,0.000,34.583
12193,4.182,0.000,2.804,0.000,11.000,0.000,0.000,34.518
12282,4.182,0.000,2.804,0.000,11.000,0.000,0.000,34.545
12371,4.182,0.000,2.804,0.000,11.000,0.000,0.000,34.517
12459,3.891,0.000,2.804,0.265,11.000,0.781,0.018,43.890
12548,4.057,0.000,2.804,0.265,11.000,0.781,0.000,43.811
12637,4.074,0.000,2.804,0.265,11.000,0.781,0.000,41.334
12726,4.077,0.000,2.804,0.265,11.000,0.781,0.000,39.575
12815,4.078,0.000,2.804,0.265,11.000,0.781,0.000,38.292
12904,4.078,0.000,2.804,0.265,11.000,0.781,0.000,37.368
12993,4.079,0.000,2.804,0.265,11.000,0.781,0.000,36.653
13082,4.079,0.000,2.804,0.265,11.000,0.781,0.000,36.171
13171,4.079,0.000,2.804,0.265,11.000,0.781,0.000,35.759
13260,4.079,0.000,2.804,0.265,11.000,0.781,0.000,35.569
13349,4.079,0.000,2.804,0.265,11.000,0.781,0.000,35.297
13438,4.079,0.000,2.804,0.265,11.000,0.781,0.000,35.161
13527,4.079,0.000,2.804,0.265,11.000,0.781,0.000,35.017
13616,4.079,0.000,2.804,0.265,11.000,0.781,0.000,34.962
13705,4.079,0.000,2.804,0.265,11.000,0.781,0.000,34.860
13794,4.079,0.000,2.804,0.265,11.000,0.781,0.000,34.801
13883,4.080,0.000,2.804,0.265,11.000,0.781,0.000,34.781
13972,4.079,0.000,2.804,0.265,11.000,0.781,0.000,34.730
14061,4.080,0.000,2.804,0.265,11.000,0.781,0.000,34.720
14150,4.080,0.000,2.804,0.265,11.000,0.781,0.000,34.693
14239,4.080,0.000,2.804,0.265,11.000,0.781,0.000,34.655
14328,4.080,0.000,2.804,0.265,11.000,0.781,0.000,34.641
14417,4.080,0.000,2.804,0.265,11.000,0.781,0.000,34.638
14506,4.080,0.000,2.804,0.265,11.000,0.781,0.000,34.615
14595,4.080,0.000,2.804,0.265,11.000,0.781,0.000,34.589
14684,4.080,0.000,2.804,0.265,11.000,0.781,0.000,34.587
14773,4.080,0.000,2.804,0.265,11.000,0.781,0.000,34.599
14862,4.080,0.000,2.804,0.265,11.000,0.781,0.000,34.574
14951,4.080,0.000,2.804,0.265,11.000,0.781,0.000,34.585
15040,4.080,0.000,2.804,0.265,11.000,0.781,0.000,34.564
15129,4.080,0.000,2.804,0.265,11.000,0.781,0.000,34.583
15218,4.080,0.000,2.804,0.265,11.000,0.781,0.000,34.553
15307,4.080,0.000,2.804,0.265,11.000,0.781,0.000,34.587
15396,4.080,0.000,2.804,0.265,11.000,0.781,0.000,34.537
15485,4.080,0.000,2.804,0.265,11.000,0.781,0.000,34.578
15574,4.080,0.000,2.804,0.265,11.000,0.781,0.000,34.581
15663,4.080,0.000,2.804,0.265,11.000,0.781,0.000,34.542
15752,4.080,0.000,2.804,0.265,11.000,0.781,0.000,34.553
15841,4.080,0.000,2.804,0.265,11.000,0.781,0.000,34.583
15930,4.080,0.000,2.804,0.265,11.000,0.781,0.000,34.614
16019,4.080,0.000,2.804,0.265,11.000,0.781,0.000,34.602
16056,4.080,0.000,2.804,0.265,11.000,0.781,0.000,34.566