File: data/T35/5C/4.csv
time_s,voltage_v,current_a,chargecapacity_ah,dischargecapacity_ah,charge_energy_wh,discharge_energy_wh,voltagedot_v_per_s,temp_degc
1,3.222,0.000,0.000,0.000,0.000,0.000,0.000,33.681
123,3.630,1.625,0.028,0.000,0.102,0.000,0.001,33.612
246,3.688,1.625,0.084,0.000,0.306,0.000,0.000,34.098
369,3.717,1.625,0.139,0.000,0.511,0.000,-0.001,34.610
492,3.783,1.625,0.195,0.000,0.719,0.000,0.000,35.072
615,3.779,1.625,0.251,0.000,0.929,0.000,0.000,35.356
738,3.794,1.625,0.306,0.000,1.139,0.000,0.001,35.457
861,3.797,1.625,0.362,0.000,1.350,0.000,-0.001,35.605
984,3.825,1.625,0.417,0.000,1.562,0.000,0.000,35.631
1107,3.842,1.625,0.473,0.000,1.775,0.000,0.000,35.666
1230,3.858,1.625,0.528,0.000,1.989,0.000,0.001,35.679
1353,3.883,1.625,0.584,0.000,2.204,0.000,0.000,35.604
1476,3.861,1.625,0.639,0.000,2.419,0.000,0.001,35.635
1599,3.878,1.625,0.695,0.000,2.634,0.000,0.000,35.640
1722,3.886,1.625,0.750,0.000,2.849,0.000,0.000,35.658
1845,3.901,1.625,0.806,0.000,3.066,0.000,0.000,35.660
1968,3.917,1.625,0.861,0.000,3.283,0.000,-0.001,35.727
2091,3.934,1.625,0.917,0.000,3.501,0.000,-0.001,35.738
2214,3.937,1.625,0.972,0.000,3.719,0.000,0.000,35.808
2337,3.953,1.625,1.028,0.000,3.938,0.000,-0.001,35.834
2460,3.968,1.625,1.083,0.000,4.158,0.000,0.001,35.926
2583,3.982,1.625,1.139,0.000,4.379,0.000,0.001,35.920
2706,3.986,1.625,1.195,0.000,4.600,0.000,-0.001,35.967
2829,3.993,1.625,1.250,0.000,4.822,0.000,0.000,36.020
2952,4.010,1.625,1.306,0.000,5.044,0.000,0.000,35.980
3075,4.029,1.625,1.361,0.000,5.267,0.000,0.000,36.064
3198,4.041,1.625,1.417,0.000,5.491,0.000,-0.001,36.028
3321,4.047,1.625,1.472,0.000,5.716,0.000,0.000,36.039
3444,4.059,1.625,1.528,0.000,5.941,0.000,0.000,36.061
3567,4.073,1.625,1.583,0.000,6.167,0.000,0.000,36.084
3690,4.088,1.625,1.639,0.000,6.394,0.000,-0.001,36.093
3813,4.105,1.625,1.694,0.000,6.621,0.000,0.006,36.045
3936,4.115,1.625,1.750,0.000,6.849,0.000,-0.001,36.099
4059,4.119,1.625,1.805,0.000,7.077,0.000,0.000,36.110
4182,4.141,1.625,1.861,0.000,7.307,0.000,0.000,36.128
4305,4.156,1.625,1.916,0.000,7.537,0.000,0.001,36.081
4428,4.182,1.625,1.972,0.000,7.768,0.000,0.001,36.099
4551,4.200,1.592,2.027,0.000,8.000,0.000,0.000,36.100
4674,4.200,1.502,2.081,0.000,8.225,0.000,0.000,36.024
4797,4.200,1.438,2.131,0.000,8.437,0.000,0.000,35.994
4920,4.200,1.381,2.179,0.000,8.639,0.000,0.000,35.918
5043,4.200,1.311,2.225,0.000,8.832,0.000,0.000,35.814
5166,4.200,1.238,2.269,0.000,9.015,0.000,0.000,35.743
5289,4.200,1.183,2.310,0.000,9.188,0.000,0.000,35.679
5412,4.200,1.111,2.349,0.000,9.353,0.000,0.000,35.601
5535,4.200,1.044,2.386,0.000,9.508,0.000,0.000,35.492
5658,4.200,0.997,2.421,0.000,9.655,0.000,0.000,35.436
5781,4.200,0.949,2.455,0.000,9.795,0.000,0.000,35.328
5904,4.200,0.913,2.486,0.000,9.928,0.000,0.000,35.304
6027,4.200,0.865,2.517,0.000,10.056,0.000,0.000,35.258
6150,4.200,0.824,2.546,0.000,10.178,0.000,0.000,35.236
6273,4.200,0.782,2.573,0.000,10.293,0.000,0.000,35.176
6396,4.200,0.748,2.599,0.000,10.402,0.000,0.000,35.135
6519,4.200,0.712,2.624,0.000,10.507,0.000,0.000,35.057
6642,4.200,0.686,2.648,0.000,10.608,0.000,0.000,35.048
6765,4.200,0.659,2.671,0.000,10.704,0.000,0.000,35.036
6888,4.200,0.636,2.693,0.000,10.797,0.000,0.000,34.990
7011,4.200,0.617,2.715,0.000,10.887,0.000,0.000,34.988
7134,4.200,0.588,2.735,0.000,10.973,0.000,0.000,34.943
7257,4.200,0.564,2.755,0.000,11.056,0.000,0.000,34.900
7380,4.200,0.542,2.774,0.000,11.135,0.000,0.000,34.934
7503,4.200,0.521,2.792,0.000,11.211,0.000,0.000,34.863
7626,4.200,0.497,2.809,0.000,11.284,0.000,0.000,34.825
7749,4.200,0.479,2.826,0.000,11.354,0.000,0.000,34.863
7872,4.200,0.459,2.842,0.000,11.421,0.000,0.000,34.780
7995,4.200,0.443,2.857,0.000,11.486,0.000,0.000,34.786
8118,4.200,0.425,2.872,0.000,11.548,0.000,0.000,34.757
8241,4.200,0.412,2.886,0.000,11.608,0.000,0.000,34.780
8364,4.200,0.391,2.900,0.000,11.666,0.000,0.000,34.773
8487,4.200,0.376,2.913,0.000,11.721,0.000,0.000,34.746
8610,4.200,0.365,2.926,0.000,11.774,0.000,0.000,34.779
8733,4.200,0.354,2.938,0.000,11.825,0.000,0.000,34.696
8856,4.200,0.343,2.950,0.000,11.875,0.000,0.000,34.687
8979,4.200,0.333,2.961,0.000,11.924,0.000,0.000,34.732
9102,4.200,0.323,2.973,0.000,11.971,0.000,0.000,34.718
9225,4.200,0.313,2.984,0.000,12.016,0.000,0.000,34.730
9348,4.200,0.304,2.994,0.000,12.061,0.000,0.000,34.681
9471,4.200,0.293,3.004,0.000,12.104,0.000,0.000,34.691
9594,4.200,0.284,3.014,0.000,12.145,0.000,0.000,34.667
9717,4.200,0.276,3.024,0.000,12.185,0.000,0.000,34.654
9840,4.200,0.268,3.033,0.000,12.224,0.000,0.000,34.685
9963,4.200,0.260,3.042,0.000,12.262,0.000,0.000,34.668
10086,4.200,0.253,3.051,0.000,12.299,0.000,0.000,34.609
10209,4.200,0.247,3.059,0.000,12.335,0.000,0.000,34.644
10332,4.200,0.238,3.068,0.000,12.370,0.000,0.000,34.616
10455,4.200,0.232,3.076,0.000,12.403,0.000,0.000,34.593
10578,4.200,0.226,3.083,0.000,12.436,0.000,0.000,34.616
10701,4.200,0.220,3.091,0.000,12.468,0.000,0.000,34.632
10824,4.200,0.213,3.098,0.000,12.499,0.000,0.000,34.578
10947,4.200,0.207,3.106,0.000,12.529,0.000,0.000,34.608
11070,4.200,0.201,3.113,0.000,12.558,0.000,0.000,34.595
11193,4.200,0.195,3.119,0.000,12.587,0.000,0.000,34.573
11316,4.200,0.189,3.126,0.000,12.614,0.000,0.000,34.578
11439,4.200,0.183,3.132,0.000,12.641,0.000,0.000,34.580
11562,4.200,0.178,3.138,0.000,12.667,0.000,0.000,34.591
11685,4.200,0.172,3.144,0.000,12.692,0.000,0.000,34.594
11808,4.200,0.166,3.150,0.000,12.716,0.000,0.000,34.567
11931,4.200,0.160,3.156,0.000,12.740,0.000,0.000,34.607
12054,4.200,0.155,3.161,0.000,12.762,0.000,0.000,34.564
12177,4.200,0.151,3.166,0.000,12.784,0.000,0.000,34.633
12300,4.200,0.146,3.171,0.000,12.805,0.000,0.000,34.558
12423,4.200,0.141,3.176,0.000,12.826,0.000,0.000,34.560
12546,4.200,0.135,3.181,0.000,12.846,0.000,0.000,34.512
12669,4.200,0.130,3.186,0.000,12.865,0.000,0.000,34.547
12792,4.200,0.126,3.190,0.000,12.883,0.000,0.000,34.561
12915,4.200,0.122,3.194,0.000,12.901,0.000,0.000,34.573
13038,4.200,0.118,3.198,0.000,12.918,0.000,0.000,34.563
13161,4.200,0.113,3.202,0.000,12.935,0.000,0.000,34.550
13284,4.200,0.108,3.206,0.000,12.951,0.000,0.000,34.560
13407,4.200,0.104,3.210,0.000,12.966,0.000,0.000,34.535
13530,4.200,0.100,3.213,0.000,12.981,0.000,0.000,34.549
13653,4.200,0.097,3.216,0.000,12.995,0.000,0.000,34.560
13776,4.200,0.093,3.220,0.000,13.008,0.000,0.000,34.536
13899,4.200,0.090,3.223,0.000,13.022,0.000,0.000,34.539
14022,4.200,0.087,3.226,0.000,13.034,0.000,0.000,34.504
14145,4.200,0.083,3.229,0.000,13.046,0.000,0.000,34.520
14268,4.200,0.080,3.232,0.000,13.058,0.000,0.000,34.519
14391,4.200,0.077,3.234,0.000,13.069,0.000,0.000,34.559
14514,4.200,0.073,3.237,0.000,13.080,0.000,0.000,34.563
14637,4.200,0.070,3.239,0.000,13.090,0.000,0.000,34.517
14760,4.200,0.067,3.242,0.000,13.100,0.000,0.000,34.503
14883,4.179,0.000,3.243,0.000,13.107,0.000,0.000,34.506
15006,4.177,0.000,3.243,0.000,13.107,0.000,0.000,34.521
15129,4.177,0.000,3.243,0.000,13.107,0.000,0.000,34.537
15252,4.176,0.000,3.243,0.000,13.107,0.000,0.000,34.554
15375,4.175,0.000,3.243,0.000,13.107,0.000,0.000,34.521
15498,4.175,0.000,3.243,0.000,13.107,0.000,0.000,34.541
15621,4.174,0.000,3.243,0.000,13.107,0.000,0.000,34.532
15744,4.174,0.000,3.243,0.000,13.107,0.000,0.000,34.540
15867,4.174,0.000,3.243,0.000,13.107,0.000,0.000,34.549
15990,4.173,0.000,3.243,0.000,13.107,0.000,0.000,34.511
16113,4.173,0.000,3.243,0.000,13.107,0.000,0.000,34.588
16236,4.172,0.000,3.243,0.000,13.107,0.000,0.000,34.558
16359,4.172,0.000,3.243,0.000,13.107,0.000,0.000,34.574
16482,4.172,0.000,3.243,0.000,13.107,0.000,0.000,34.543
16605,4.172,0.000,3.243,0.000,13.107,0.000,0.000,34.573
16728,4.171,0.000,3.243,0.000,13.107,0.000,0.000,34.552
16851,4.171,0.000,3.243,0.000,13.107,0.000,0.000,34.554
16974,4.171,0.000,3.243,0.000,13.107,0.000,0.000,34.537
17097,4.171,0.000,3.243,0.000,13.107,0.000,0.000,34.550
17220,4.171,0.000,3.243,0.000,13.107,0.000,0.000,34.525
17343,4.170,0.000,3.243,0.000,13.107,0.000,0.000,34.545
17466,4.170,0.000,3.243,0.000,13.107,0.000,0.000,34.569
17589,4.170,0.000,3.243,0.000,13.107,0.000,0.000,34.564
17712,4.170,0.000,3.243,0.000,13.107,0.000,0.000,34.567
17835,4.170,0.000,3.243,0.000,13.107,0.000,0.000,34.567
17958,4.170,0.000,3.243,0.000,13.107,0.000,0.000,34.579
18081,4.170,0.000,3.243,0.000,13.107,0.000,0.000,34.576
18204,4.169,0.000,3.243,0.000,13.107,0.000,0.000,34.607
18327,4.169,0.000,3.243,0.000,13.107,0.000,0.000,34.591
18449,3.028,-16.747,3.243,0.009,13.107,0.028,-0.017,34.614
18572,4.046,0.000,3.243,0.256,13.107,0.709,0.001,43.924
18695,4.071,0.000,3.243,0.256,13.107,0.709,0.000,40.879
18818,4.074,0.000,3.243,0.256,13.107,0.709,0.000,38.820
18941,4.075,0.000,3.243,0.256,13.107,0.709,0.000,37.526
19064,4.075,0.000,3.243,0.256,13.107,0.709,0.000,36.657
19187,4.075,0.000,3.243,0.256,13.107,0.709,0.000,36.053
19310,4.075,0.000,3.243,0.256,13.107,0.709,0.000,35.651
19433,4.076,0.000,3.243,0.256,13.107,0.709,0.000,35.373
19556,4.076,0.000,3.243,0.256,13.107,0.709,0.000,35.176
19679,4.076,0.000,3.243,0.256,13.107,0.709,0.000,35.014
19802,4.076,0.000,3.243,0.256,13.107,0.709,0.000,34.866
19925,4.076,0.000,3.243,0.256,13.107,0.709,0.000,34.786
20048,4.076,0.000,3.243,0.256,13.107,0.709,0.000,34.778
20171,4.076,0.000,3.243,0.256,13.107,0.709,0.000,34.749
20294,4.076,0.000,3.243,0.256,13.107,0.709,0.000,34.657
20417,4.076,0.000,3.243,0.256,13.107,0.709,0.000,34.642
20540,4.076,0.000,3.243,0.256,13.107,0.709,0.000,34.698
20663,4.076,0.000,3.243,0.256,13.107,0.709,0.000,34.637
20786,4.076,0.000,3.243,0.256,13.107,0.709,0.000,34.642
20909,4.076,0.000,3.243,0.256,13.107,0.709,0.000,34.614
21032,4.076,0.000,3.243,0.256,13.107,0.709,0.000,34.625
21155,4.076,0.000,3.243,0.256,13.107,0.709,0.000,34.614
21278,4.076,0.000,3.243,0.256,13.107,0.709,0.000,34.669
21401,4.076,0.000,3.243,0.256,13.107,0.709,0.000,34.674
21524,4.076,0.000,3.243,0.256,13.107,0.709,0.000,34.610
21647,4.076,0.000,3.243,0.256,13.107,0.709,0.000,34.577
21770,4.076,0.000,3.243,0.256,13.107,0.709,0.000,34.618
21893,4.076,0.000,3.243,0.256,13.107,0.709,0.000,34.585
22016,4.076,0.000,3.243,0.256,13.107,0.709,0.000,34.613
22102,4.076,0.000,3.243,0.256,13.107,0.709,0.000,34.556