File: data/T35/5C/5.csv
time_s,voltage_v,current_a,chargecapacity_ah,dischargecapacity_ah,charge_energy_wh,discharge_energy_wh,voltagedot_v_per_s,temp_degc
1,3.390,0.000,0.000,0.000,0.000,0.000,0.000,34.642
88,3.522,1.625,0.013,0.000,0.044,0.000,0.000,34.680
176,3.552,1.625,0.052,0.000,0.185,0.000,0.000,34.834
264,3.571,1.625,0.092,0.000,0.326,0.000,0.000,34.936
352,3.588,1.625,0.132,0.000,0.469,0.000,0.000,35.070
440,3.602,1.625,0.172,0.000,0.612,0.000,0.000,35.053
528,3.613,1.625,0.211,0.000,0.755,0.000,0.000,35.159
616,3.623,1.625,0.251,0.000,0.899,0.000,0.000,35.214
704,3.632,1.625,0.291,0.000,1.043,0.000,0.000,35.218
792,3.641,1.625,0.330,0.000,1.187,0.000,0.000,35.305
880,3.649,1.625,0.370,0.000,1.332,0.000,0.000,35.302
968,3.657,1.625,0.410,0.000,1.477,0.000,0.000,35.345
1056,3.666,1.625,0.450,0.000,1.623,0.000,0.000,35.350
1144,3.675,1.625,0.489,0.000,1.768,0.000,0.000,35.428
1232,3.683,1.625,0.529,0.000,1.914,0.000,0.000,35.433
1320,3.691,1.625,0.569,0.000,2.061,0.000,0.000,35.470
1408,3.700,1.625,0.609,0.000,2.208,0.000,0.000,35.542
1496,3.708,1.625,0.648,0.000,2.355,0.000,0.000,35.551
1584,3.716,1.625,0.688,0.000,2.502,0.000,0.000,35.614
1672,3.724,1.625,0.728,0.000,2.650,0.000,0.000,35.620
1760,3.732,1.625,0.767,0.000,2.798,0.000,0.000,35.667
1848,3.739,1.625,0.807,0.000,2.947,0.000,0.000,35.666
1936,3.747,1.625,0.847,0.000,3.095,0.000,0.000,35.723
2024,3.754,1.625,0.887,0.000,3.244,0.000,0.000,35.736
2112,3.761,1.625,0.926,0.000,3.394,0.000,0.000,35.781
2200,3.769,1.625,0.966,0.000,3.543,0.000,0.000,35.789
2288,3.776,1.625,1.006,0.000,3.693,0.000,0.000,35.793
2376,3.784,1.625,1.045,0.000,3.843,0.000,0.000,35.750
2464,3.793,1.625,1.085,0.000,3.994,0.000,0.000,35.749
2552,3.801,1.625,1.125,0.000,4.145,0.000,0.000,35.828
2640,3.810,1.625,1.165,0.000,4.296,0.000,0.000,35.753
2728,3.820,1.625,1.204,0.000,4.447,0.000,0.000,35.809
2816,3.829,1.625,1.244,0.000,4.599,0.000,0.000,35.763
2904,3.839,1.625,1.284,0.000,4.751,0.000,0.000,35.779
2992,3.850,1.625,1.324,0.000,4.904,0.000,0.000,35.785
3080,3.860,1.625,1.363,0.000,5.057,0.000,0.000,35.777
3168,3.871,1.625,1.403,0.000,5.211,0.000,0.000,35.753
3256,3.883,1.625,1.443,0.000,5.365,0.000,0.000,35.739
3344,3.894,1.625,1.482,0.000,5.519,0.000,0.000,35.821
3432,3.906,1.625,1.522,0.000,5.674,0.000,0.000,35.756
3520,3.918,1.625,1.562,0.000,5.830,0.000,0.000,35.791
3608,3.929,1.625,1.602,0.000,5.986,0.000,0.000,35.796
3696,3.941,1.625,1.641,0.000,6.142,0.000,0.000,35.767
3784,3.953,1.625,1.681,0.000,6.299,0.000,0.000,35.781
3872,3.964,1.625,1.721,0.000,6.456,0.000,0.000,35.766
3960,3.976,1.625,1.761,0.000,6.614,0.000,0.000,35.721
4048,3.987,1.625,1.800,0.000,6.772,0.000,0.000,35.726
4136,3.999,1.625,1.840,0.000,6.930,0.000,0.000,35.707
4224,4.010,1.625,1.880,0.000,7.090,0.000,0.000,35.681
4312,4.021,1.625,1.919,0.000,7.249,0.000,0.000,35.668
4400,4.032,1.625,1.959,0.000,7.409,0.000,0.000,35.664
4488,4.044,1.625,1.999,0.000,7.569,0.000,0.000,35.672
4576,4.056,1.625,2.039,0.000,7.730,0.000,0.000,35.705
4664,4.068,1.625,2.078,0.000,7.892,0.000,0.000,35.719
4752,4.081,1.625,2.118,0.000,8.053,0.000,0.000,35.734
4840,4.094,1.625,2.158,0.000,8.216,0.000,0.000,35.741
4928,4.108,1.625,2.198,0.000,8.379,0.000,0.000,35.756
5016,4.123,1.625,2.237,0.000,8.542,0.000,0.000,35.784
5104,4.138,1.625,2.277,0.000,8.706,0.000,0.000,35.807
5192,4.154,1.625,2.317,0.000,8.871,0.000,0.000,35.839
5280,4.170,1.625,2.356,0.000,9.036,0.000,0.000,35.827
5368,4.187,1.625,2.396,0.000,9.202,0.000,0.000,35.880
5456,4.200,1.576,2.436,0.000,9.368,0.000,0.000,35.873
5544,4.200,1.404,2.472,0.000,9.520,0.000,0.000,35.925
5632,4.200,1.279,2.505,0.000,9.658,0.000,0.000,35.821
5720,4.200,1.174,2.535,0.000,9.784,0.000,0.000,35.712
5808,4.200,1.083,2.562,0.000,9.899,0.000,0.000,35.658
5896,4.200,1.004,2.588,0.000,10.006,0.000,0.000,35.584
5984,4.200,0.935,2.611,0.000,10.106,0.000,0.000,35.451
6072,4.200,0.871,2.633,0.000,10.198,0.000,0.000,35.400
6160,4.200,0.812,2.654,0.000,10.285,0.000,0.000,35.357
6248,4.200,0.758,2.673,0.000,10.365,0.000,0.000,35.240
6336,4.200,0.705,2.691,0.000,10.440,0.000,0.000,35.183
6424,4.200,0.655,2.708,0.000,10.510,0.000,0.000,35.180
6512,4.200,0.607,2.723,0.000,10.575,0.000,0.000,35.106
6600,4.200,0.562,2.737,0.000,10.635,0.000,0.000,35.126
6688,4.200,0.519,2.750,0.000,10.690,0.000,0.000,35.035
6776,4.200,0.478,2.763,0.000,10.741,0.000,0.000,35.023
6864,4.200,0.440,2.774,0.000,10.788,0.000,0.000,34.963
6952,4.200,0.403,2.784,0.000,10.832,0.000,0.000,34.904
7040,4.200,0.369,2.794,0.000,10.871,0.000,0.000,34.854
7128,4.200,0.336,2.802,0.000,10.907,0.000,0.000,34.865
7216,4.200,0.308,2.810,0.000,10.940,0.000,0.000,34.842
7304,4.200,0.280,2.817,0.000,10.971,0.000,0.000,34.822
7392,4.200,0.256,2.824,0.000,10.998,0.000,0.000,34.788
7480,4.200,0.232,2.830,0.000,11.023,0.000,0.000,34.727
7568,4.200,0.211,2.835,0.000,11.046,0.000,0.000,34.720
7656,4.200,0.192,2.840,0.000,11.066,0.000,0.000,34.768
7744,4.200,0.175,2.845,0.000,11.085,0.000,0.000,34.678
7832,4.200,0.159,2.849,0.000,11.102,0.000,0.000,34.719
7920,4.200,0.144,2.852,0.000,11.118,0.000,0.000,34.697
8008,4.200,0.132,2.856,0.000,11.132,0.000,0.000,34.686
8096,4.200,0.120,2.859,0.000,11.145,0.000,0.000,34.693
8184,4.200,0.110,2.862,0.000,11.157,0.000,0.000,34.678
8272,4.200,0.101,2.864,0.000,11.168,0.000,0.000,34.632
8360,4.200,0.092,2.867,0.000,11.178,0.000,0.000,34.692
8448,4.200,0.085,2.869,0.000,11.187,0.000,0.000,34.643
8536,4.200,0.078,2.871,0.000,11.195,0.000,0.000,34.680
8624,4.200,0.072,2.872,0.000,11.203,0.000,0.000,34.646
8712,4.200,0.066,2.874,0.000,11.210,0.000,0.000,34.612
8799,4.194,0.000,2.874,0.000,11.210,0.000,0.000,34.610
8887,4.193,0.000,2.874,0.000,11.210,0.000,0.000,34.620
8975,4.192,0.000,2.874,0.000,11.210,0.000,0.000,34.637
9063,4.191,0.000,2.874,0.000,11.210,0.000,0.000,34.635
9151,4.190,0.000,2.874,0.000,11.210,0.000,0.000,34.638
9239,4.190,0.000,2.874,0.000,11.210,0.000,0.000,34.599
9327,4.189,0.000,2.874,0.000,11.210,0.000,0.000,34.633
9415,4.189,0.000,2.874,0.000,11.210,0.000,0.000,34.632
9503,4.188,0.000,2.874,0.000,11.210,0.000,0.000,34.622
9591,4.188,0.000,2.874,0.000,11.210,0.000,0.000,34.585
9679,4.187,0.000,2.874,0.000,11.210,0.000,0.000,34.633
9767,4.187,0.000,2.874,0.000,11.210,0.000,0.000,34.601
9855,4.187,0.000,2.874,0.000,11.210,0.000,0.000,34.633
9943,4.186,0.000,2.874,0.000,11.210,0.000,0.000,34.595
10031,4.186,0.000,2.874,0.000,11.210,0.000,0.000,34.604
10119,4.186,0.000,2.874,0.000,11.210,0.000,0.000,34.583
10207,4.186,0.000,2.874,0.000,11.210,0.000,0.000,34.608
10295,4.185,0.000,2.874,0.000,11.210,0.000,0.000,34.572
10383,4.185,0.000,2.874,0.000,11.210,0.000,0.000,34.621
10471,4.185,0.000,2.874,0.000,11.210,0.000,0.000,34.632
10559,4.185,0.000,2.874,0.000,11.210,0.000,0.000,34.621
10647,4.184,0.000,2.874,0.000,11.210,0.000,0.000,34.627
10735,4.184,0.000,2.874,0.000,11.210,0.000,0.000,34.628
10823,4.184,0.000,2.874,0.000,11.210,0.000,0.000,34.617
10911,4.184,0.000,2.874,0.000,11.210,0.000,0.000,34.613
10999,4.184,0.000,2.874,0.000,11.210,0.000,0.000,34.602
11087,4.184,0.000,2.874,0.000,11.210,0.000,0.000,34.632
11175,4.183,0.000,2.874,0.000,11.210,0.000,0.000,34.627
11263,4.183,0.000,2.874,0.000,11.210,0.000,0.000,34.674
11351,4.183,0.000,2.874,0.000,11.210,0.000,0.000,34.637
11439,4.183,0.000,2.874,0.000,11.210,0.000,0.000,34.626
11527,4.183,0.000,2.874,0.000,11.210,0.000,0.000,34.652
11615,4.183,0.000,2.874,0.000,11.210,0.000,0.000,34.586
11703,4.183,0.000,2.874,0.000,11.210,0.000,0.000,34.607
11791,4.182,0.000,2.874,0.000,11.210,0.000,0.000,34.632
11879,4.182,0.000,2.874,0.000,11.210,0.000,0.000,34.631
11967,4.182,0.000,2.874,0.000,11.210,0.000,0.000,34.631
12055,4.182,0.000,2.874,0.000,11.210,0.000,0.000,34.654
12143,4.182,0.000,2.874,0.000,11.210,0.000,0.000,34.620
12231,4.182,0.000,2.874,0.000,11.210,0.000,0.000,34.656
12318,4.182,0.000,2.874,0.000,11.210,0.000,-0.001,34.605
12406,4.074,0.000,2.874,0.176,11.210,0.539,0.001,41.047
12494,4.097,0.000,2.874,0.176,11.210,0.539,0.000,39.269
12582,4.101,0.000,2.874,0.176,11.210,0.539,0.000,38.057
12670,4.102,0.000,2.874,0.176,11.210,0.539,0.000,37.079
12758,4.102,0.000,2.874,0.176,11.210,0.539,0.000,36.518
12846,4.102,0.000,2.874,0.176,11.210,0.539,0.000,36.020
12934,4.103,0.000,2.874,0.176,11.210,0.539,0.000,35.653
13022,4.103,0.000,2.874,0.176,11.210,0.539,0.000,35.423
13110,4.103,0.000,2.874,0.176,11.210,0.539,0.000,35.214
13198,4.103,0.000,2.874,0.176,11.210,0.539,0.000,35.106
13286,4.103,0.000,2.874,0.176,11.210,0.539,0.000,34.987
13374,4.103,0.000,2.874,0.176,11.210,0.539,0.000,34.934
13462,4.103,0.000,2.874,0.176,11.210,0.539,0.000,34.860
13550,4.103,0.000,2.874,0.176,11.210,0.539,0.000,34.871
13638,4.103,0.000,2.874,0.176,11.210,0.539,0.000,34.792
13726,4.104,0.000,2.874,0.176,11.210,0.539,0.000,34.761
13814,4.104,0.000,2.874,0.176,11.210,0.539,0.000,34.741
13902,4.104,0.000,2.874,0.176,11.210,0.539,0.000,34.745
13990,4.104,0.000,2.874,0.176,11.210,0.539,0.000,34.748
14078,4.104,0.000,2.874,0.176,11.210,0.539,0.000,34.735
14166,4.104,0.000,2.874,0.176,11.210,0.539,0.000,34.723
14254,4.104,0.000,2.874,0.176,11.210,0.539,0.000,34.675
14342,4.104,0.000,2.874,0.176,11.210,0.539,0.000,34.696
14430,4.104,0.000,2.874,0.176,11.210,0.539,0.000,34.694
14518,4.104,0.000,2.874,0.176,11.210,0.539,0.000,34.711
14606,4.104,0.000,2.874,0.176,11.210,0.539,0.000,34.704
14694,4.104,0.000,2.874,0.176,11.210,0.539,0.000,34.696
14782,4.104,0.000,2.874,0.176,11.210,0.539,0.000,34.680
14870,4.104,0.000,2.874,0.176,11.210,0.539,0.000,34.669
14958,4.104,0.000,2.874,0.176,11.210,0.539,0.000,34.691
15046,4.104,0.000,2.874,0.176,11.210,0.539,0.000,34.685
15134,4.104,0.000,2.874,0.176,11.210,0.539,0.000,34.668
15222,4.104,0.000,2.874,0.176,11.210,0.539,0.000,34.705
15310,4.104,0.000,2.874,0.176,11.210,0.539,0.000,34.683
15398,4.104,0.000,2.874,0.176,11.210,0.539,0.000,34.632
15486,4.104,0.000,2.874,0.176,11.210,0.539,0.000,34.668
15574,4.104,0.000,2.874,0.176,11.210,0.539,0.000,34.669
15662,4.104,0.000,2.874,0.176,11.210,0.539,0.000,34.686
15750,4.104,0.000,2.874,0.176,11.210,0.539,0.000,34.651
15838,4.104,0.000,2.874,0.176,11.210,0.539,0.000,34.645
15926,4.104,0.000,2.874,0.176,11.210,0.539,0.000,34.689
15956,4.104,0.000,2.874,0.176,11.210,0.539,0.000,34.716