File: data/T35/5C/6.csv
time_s,voltage_v,current_a,chargecapacity_ah,dischargecapacity_ah,charge_energy_wh,discharge_energy_wh,voltagedot_v_per_s,temp_degc
1,3.355,0.000,0.000,0.000,0.000,0.000,0.000,34.510
89,3.490,1.625,0.013,0.000,0.046,0.000,0.000,34.512
178,3.517,1.625,0.053,0.000,0.186,0.000,0.000,34.719
267,3.536,1.625,0.093,0.000,0.328,0.000,0.000,34.850
356,3.553,1.625,0.134,0.000,0.471,0.000,0.000,34.930
445,3.568,1.625,0.174,0.000,0.614,0.000,0.000,35.033
534,3.583,1.625,0.214,0.000,0.757,0.000,0.000,35.075
623,3.597,1.625,0.254,0.000,0.902,0.000,0.000,35.107
712,3.609,1.625,0.294,0.000,1.046,0.000,0.000,35.117
801,3.619,1.625,0.335,0.000,1.191,0.000,0.000,35.115
890,3.628,1.625,0.375,0.000,1.337,0.000,0.000,35.149
979,3.637,1.625,0.415,0.000,1.483,0.000,0.000,35.186
1068,3.646,1.625,0.455,0.000,1.629,0.000,0.000,35.221
1157,3.655,1.625,0.495,0.000,1.776,0.000,0.000,35.231
1246,3.664,1.625,0.535,0.000,1.923,0.000,0.000,35.285
1335,3.673,1.625,0.576,0.000,2.070,0.000,0.000,35.318
1424,3.682,1.625,0.616,0.000,2.218,0.000,0.000,35.341
1513,3.690,1.625,0.656,0.000,2.366,0.000,0.000,35.327
1602,3.699,1.625,0.696,0.000,2.515,0.000,0.000,35.371
1691,3.707,1.625,0.736,0.000,2.664,0.000,0.000,35.415
1780,3.716,1.625,0.777,0.000,2.813,0.000,0.000,35.426
1869,3.724,1.625,0.817,0.000,2.962,0.000,0.000,35.469
1958,3.732,1.625,0.857,0.000,3.112,0.000,0.000,35.500
2047,3.739,1.625,0.897,0.000,3.262,0.000,0.000,35.538
2136,3.746,1.625,0.937,0.000,3.412,0.000,0.000,35.582
2225,3.754,1.625,0.977,0.000,3.563,0.000,0.000,35.583
2314,3.761,1.625,1.018,0.000,3.714,0.000,0.000,35.590
2403,3.769,1.625,1.058,0.000,3.865,0.000,0.000,35.613
2492,3.778,1.625,1.098,0.000,4.017,0.000,0.000,35.623
2581,3.786,1.625,1.138,0.000,4.169,0.000,0.000,35.637
2670,3.795,1.625,1.178,0.000,4.321,0.000,0.000,35.666
2759,3.804,1.625,1.219,0.000,4.474,0.000,0.000,35.650
2848,3.813,1.625,1.259,0.000,4.627,0.000,0.000,35.641
2937,3.823,1.625,1.299,0.000,4.780,0.000,0.000,35.690
3026,3.833,1.625,1.339,0.000,4.934,0.000,0.000,35.665
3115,3.844,1.625,1.379,0.000,5.088,0.000,0.000,35.658
3204,3.855,1.625,1.419,0.000,5.243,0.000,0.000,35.679
3293,3.866,1.625,1.460,0.000,5.398,0.000,0.000,35.686
3382,3.878,1.625,1.500,0.000,5.554,0.000,0.000,35.712
3471,3.889,1.625,1.540,0.000,5.710,0.000,0.000,35.685
3560,3.901,1.625,1.580,0.000,5.866,0.000,0.000,35.693
3649,3.913,1.625,1.620,0.000,6.023,0.000,0.000,35.680
3738,3.925,1.625,1.660,0.000,6.181,0.000,0.000,35.736
3827,3.937,1.625,1.701,0.000,6.339,0.000,0.000,35.688
3916,3.949,1.625,1.741,0.000,6.497,0.000,0.000,35.699
4005,3.961,1.625,1.781,0.000,6.656,0.000,0.000,35.702
4094,3.973,1.625,1.821,0.000,6.816,0.000,0.000,35.684
4183,3.984,1.625,1.861,0.000,6.975,0.000,0.000,35.658
4272,3.996,1.625,1.902,0.000,7.136,0.000,0.000,35.678
4361,4.008,1.625,1.942,0.000,7.296,0.000,0.000,35.664
4450,4.019,1.625,1.982,0.000,7.458,0.000,0.000,35.680
4539,4.031,1.625,2.022,0.000,7.619,0.000,0.000,35.634
4628,4.043,1.625,2.062,0.000,7.782,0.000,0.000,35.652
4717,4.055,1.625,2.102,0.000,7.944,0.000,0.000,35.631
4806,4.068,1.625,2.143,0.000,8.108,0.000,0.000,35.627
4895,4.081,1.625,2.183,0.000,8.271,0.000,0.000,35.656
4984,4.094,1.625,2.223,0.000,8.435,0.000,0.000,35.668
5073,4.109,1.625,2.263,0.000,8.600,0.000,0.000,35.684
5162,4.124,1.625,2.303,0.000,8.766,0.000,0.000,35.719
5251,4.140,1.625,2.344,0.000,8.932,0.000,0.000,35.705
5340,4.156,1.625,2.384,0.000,9.098,0.000,0.000,35.715
5429,4.172,1.625,2.424,0.000,9.266,0.000,0.000,35.750
5518,4.189,1.625,2.464,0.000,9.434,0.000,0.000,35.787
5607,4.200,1.540,2.504,0.000,9.601,0.000,0.000,35.787
5696,4.200,1.377,2.540,0.000,9.752,0.000,0.000,35.807
5785,4.200,1.255,2.572,0.000,9.888,0.000,0.000,35.679
5874,4.200,1.149,2.602,0.000,10.013,0.000,0.000,35.635
5963,4.200,1.059,2.629,0.000,10.127,0.000,0.000,35.531
6052,4.200,0.981,2.654,0.000,10.233,0.000,0.000,35.422
6141,4.200,0.910,2.678,0.000,10.331,0.000,0.000,35.352
6230,4.200,0.846,2.699,0.000,10.422,0.000,0.000,35.251
6319,4.200,0.787,2.720,0.000,10.507,0.000,0.000,35.199
6408,4.200,0.730,2.738,0.000,10.585,0.000,0.000,35.141
6497,4.200,0.679,2.756,0.000,10.659,0.000,0.000,35.097
6586,4.200,0.630,2.772,0.000,10.726,0.000,0.000,35.011
6675,4.200,0.582,2.787,0.000,10.789,0.000,0.000,34.940
6764,4.200,0.538,2.801,0.000,10.847,0.000,0.000,34.931
6853,4.200,0.495,2.814,0.000,10.901,0.000,0.000,34.906
6942,4.200,0.456,2.825,0.000,10.950,0.000,0.000,34.857
7031,4.200,0.418,2.836,0.000,10.996,0.000,0.000,34.853
7120,4.200,0.382,2.846,0.000,11.037,0.000,0.000,34.830
7209,4.200,0.349,2.855,0.000,11.075,0.000,0.000,34.719
7298,4.200,0.321,2.863,0.000,11.110,0.000,0.000,34.725
7387,4.200,0.293,2.871,0.000,11.142,0.000,0.000,34.704
7476,4.200,0.266,2.878,0.000,11.171,0.000,0.000,34.678
7565,4.200,0.243,2.884,0.000,11.197,0.000,0.000,34.700
7654,4.200,0.221,2.890,0.000,11.221,0.000,0.000,34.620
7743,4.200,0.201,2.895,0.000,11.243,0.000,0.000,34.588
7832,4.200,0.184,2.900,0.000,11.263,0.000,0.000,34.635
7921,4.200,0.167,2.904,0.000,11.281,0.000,0.000,34.581
8010,4.200,0.152,2.908,0.000,11.298,0.000,0.000,34.556
8099,4.200,0.138,2.912,0.000,11.313,0.000,0.000,34.593
8188,4.200,0.127,2.915,0.000,11.326,0.000,0.000,34.573
8277,4.200,0.116,2.918,0.000,11.339,0.000,0.000,34.567
8366,4.200,0.105,2.921,0.000,11.350,0.000,0.000,34.597
8455,4.200,0.097,2.923,0.000,11.361,0.000,0.000,34.536
8544,4.200,0.088,2.925,0.000,11.371,0.000,0.000,34.525
8633,4.200,0.082,2.927,0.000,11.379,0.000,0.000,34.523
8722,4.200,0.075,2.929,0.000,11.388,0.000,0.000,34.548
8811,4.200,0.069,2.931,0.000,11.395,0.000,0.000,34.525
8900,4.195,0.000,2.932,0.000,11.400,0.000,0.000,34.521
8989,4.193,0.000,2.932,0.000,11.400,0.000,0.000,34.503
9078,4.192,0.000,2.932,0.000,11.400,0.000,0.000,34.478
9167,4.191,0.000,2.932,0.000,11.400,0.000,0.000,34.512
9256,4.191,0.000,2.932,0.000,11.400,0.000,0.000,34.476
9345,4.190,0.000,2.932,0.000,11.400,0.000,0.000,34.479
9434,4.189,0.000,2.932,0.000,11.400,0.000,0.000,34.465
9523,4.189,0.000,2.932,0.000,11.400,0.000,0.000,34.444
9612,4.188,0.000,2.932,0.000,11.400,0.000,0.000,34.447
9701,4.188,0.000,2.932,0.000,11.400,0.000,0.000,34.497
9790,4.188,0.000,2.932,0.000,11.400,0.000,0.000,34.490
9879,4.187,0.000,2.932,0.000,11.400,0.000,0.000,34.475
9968,4.187,0.000,2.932,0.000,11.400,0.000,0.000,34.462
10057,4.187,0.000,2.932,0.000,11.400,0.000,0.000,34.442
10146,4.186,0.000,2.932,0.000,11.400,0.000,0.000,34.486
10235,4.186,0.000,2.932,0.000,11.400,0.000,0.000,34.454
10324,4.186,0.000,2.932,0.000,11.400,0.000,0.000,34.474
10413,4.186,0.000,2.932,0.000,11.400,0.000,0.000,34.391
10502,4.185,0.000,2.932,0.000,11.400,0.000,0.000,34.468
10591,4.185,0.000,2.932,0.000,11.400,0.000,0.000,34.458
10680,4.185,0.000,2.932,0.000,11.400,0.000,0.000,34.454
10769,4.185,0.000,2.932,0.000,11.400,0.000,0.000,34.464
10858,4.185,0.000,2.932,0.000,11.400,0.000,0.000,34.480
10947,4.184,0.000,2.932,0.000,11.400,0.000,0.000,34.432
11036,4.184,0.000,2.932,0.000,11.400,0.000,0.000,34.474
11125,4.184,0.000,2.932,0.000,11.400,0.000,0.000,34.420
11214,4.184,0.000,2.932,0.000,11.400,0.000,0.000,34.451
11303,4.184,0.000,2.932,0.000,11.400,0.000,0.000,34.464
11392,4.184,0.000,2.932,0.000,11.400,0.000,0.000,34.510
11481,4.183,0.000,2.932,0.000,11.400,0.000,0.000,34.469
11570,4.183,0.000,2.932,0.000,11.400,0.000,0.000,34.444
11659,4.183,0.000,2.932,0.000,11.400,0.000,0.000,34.457
11748,4.183,0.000,2.932,0.000,11.400,0.000,0.000,34.479
11837,4.183,0.000,2.932,0.000,11.400,0.000,0.000,34.455
11926,4.183,0.000,2.932,0.000,11.400,0.000,0.000,34.456
12015,4.183,0.000,2.932,0.000,11.400,0.000,0.000,34.443
12104,4.183,0.000,2.932,0.000,11.400,0.000,0.000,34.416
12193,4.183,0.000,2.932,0.000,11.400,0.000,0.000,34.476
12282,4.183,0.000,2.932,0.000,11.400,0.000,0.000,34.408
12371,4.182,0.000,2.932,0.000,11.400,0.000,0.000,34.450
12460,4.182,0.000,2.932,0.000,11.400,0.000,0.000,34.484
12548,4.029,0.000,2.932,0.226,11.400,0.690,0.002,42.640
12637,4.077,0.000,2.932,0.226,11.400,0.690,0.000,41.064
12726,4.087,0.000,2.932,0.226,11.400,0.690,0.000,39.295
12815,4.088,0.000,2.932,0.226,11.400,0.690,0.000,37.954
12904,4.089,0.000,2.932,0.226,11.400,0.690,0.000,37.056
12993,4.089,0.000,2.932,0.226,11.400,0.690,0.000,36.472
13082,4.089,0.000,2.932,0.226,11.400,0.690,0.000,35.975
13171,4.090,0.000,2.932,0.226,11.400,0.690,0.000,35.650
13260,4.090,0.000,2.932,0.226,11.400,0.690,0.000,35.413
13349,4.090,0.000,2.932,0.226,11.400,0.690,0.000,35.205
13438,4.090,0.000,2.932,0.226,11.400,0.690,0.000,35.051
13527,4.090,0.000,2.932,0.226,11.400,0.690,0.000,34.881
13616,4.090,0.000,2.932,0.226,11.400,0.690,0.000,34.817
13705,4.090,0.000,2.932,0.226,11.400,0.690,0.000,34.769
13794,4.090,0.000,2.932,0.226,11.400,0.690,0.000,34.709
13883,4.090,0.000,2.932,0.226,11.400,0.690,0.000,34.651
13972,4.090,0.000,2.932,0.226,11.400,0.690,0.000,34.613
14061,4.090,0.000,2.932,0.226,11.400,0.690,0.000,34.570
14150,4.091,0.000,2.932,0.226,11.400,0.690,0.000,34.549
14239,4.091,0.000,2.932,0.226,11.400,0.690,0.000,34.513
14328,4.090,0.000,2.932,0.226,11.400,0.690,0.000,34.556
14417,4.091,0.000,2.932,0.226,11.400,0.690,0.000,34.501
14506,4.091,0.000,2.932,0.226,11.400,0.690,0.000,34.518
14595,4.091,0.000,2.932,0.226,11.400,0.690,0.000,34.541
14684,4.091,0.000,2.932,0.226,11.400,0.690,0.000,34.509
14773,4.091,0.000,2.932,0.226,11.400,0.690,0.000,34.541
14862,4.091,0.000,2.932,0.226,11.400,0.690,0.000,34.502
14951,4.091,0.000,2.932,0.226,11.400,0.690,0.000,34.497
15040,4.091,0.000,2.932,0.226,11.400,0.690,0.000,34.452
15129,4.091,0.000,2.932,0.226,11.400,0.690,0.000,34.464
15218,4.091,0.000,2.932,0.226,11.400,0.690,0.000,34.523
15307,4.091,0.000,2.932,0.226,11.400,0.690,0.000,34.487
15396,4.091,0.000,2.932,0.226,11.400,0.690,0.000,34.510
15485,4.091,0.000,2.932,0.226,11.400,0.690,0.000,34.506
15574,4.091,0.000,2.932,0.226,11.400,0.690,0.000,34.494
15663,4.091,0.000,2.932,0.226,11.400,0.690,0.000,34.484
15752,4.091,0.000,2.932,0.226,11.400,0.690,0.000,34.469
15841,4.091,0.000,2.932,0.226,11.400,0.690,0.000,34.470
15930,4.091,0.000,2.932,0.226,11.400,0.690,0.000,34.480
16019,4.091,0.000,2.932,0.226,11.400,0.690,0.000,34.492
16108,4.091,0.000,2.932,0.226,11.400,0.690,0.000,34.454
16122,4.091,0.000,2.932,0.226,11.400,0.690,0.000,34.474