File: data/T35/HPPC/3.csv
time_s,voltage_v,current_a,chargecapacity_ah,dischargecapacity_ah,charge_energy_wh,discharge_energy_wh,voltagedot_v_per_s,temp_degc
1,3.773,0.000,0.000,0.000,0.000,0.000,0.000,35.100
271,3.773,0.000,0.000,0.000,0.000,0.000,0.000,35.087
541,3.773,0.000,0.000,0.000,0.000,0.000,0.000,35.089
811,3.773,0.000,0.000,0.000,0.000,0.000,0.000,35.148
1081,3.773,0.000,0.000,0.000,0.000,0.000,0.000,35.040
1351,3.773,0.000,0.000,0.000,0.000,0.000,0.000,35.223
1621,3.773,0.000,0.000,0.000,0.000,0.000,0.000,35.115
1891,3.773,0.000,0.000,0.000,0.000,0.000,0.000,35.134
2161,3.773,0.000,0.000,0.000,0.000,0.000,0.000,35.081
2431,3.773,0.000,0.000,0.000,0.000,0.000,0.000,35.053
2701,3.773,0.000,0.000,0.000,0.000,0.000,0.000,35.063
2971,3.773,0.000,0.000,0.000,0.000,0.000,0.000,35.037
3241,3.773,0.000,0.000,0.000,0.000,0.000,0.000,35.062
3511,3.773,0.000,0.000,0.000,0.000,0.000,0.000,35.025
3780,3.896,1.625,0.081,0.000,0.315,0.000,0.000,35.331
4050,3.935,1.625,0.203,0.000,0.793,0.000,0.000,35.619
4320,3.972,1.625,0.325,0.000,1.275,0.000,0.000,35.765
4590,4.009,1.625,0.447,0.000,1.761,0.000,0.000,35.870
4860,4.047,1.625,0.569,0.000,2.252,0.000,0.000,35.920
5130,4.089,1.625,0.691,0.000,2.748,0.000,0.000,36.099
5400,4.138,1.625,0.813,0.000,3.249,0.000,0.000,36.206
5670,4.190,1.625,0.935,0.000,3.757,0.000,0.000,36.267
5940,4.200,1.222,1.042,0.000,4.209,0.000,0.000,36.210
6210,4.200,0.934,1.122,0.000,4.546,0.000,0.000,35.991
6480,4.200,0.720,1.184,0.000,4.805,0.000,0.000,35.732
6750,4.200,0.546,1.231,0.000,5.003,0.000,0.000,35.527
7020,4.200,0.406,1.267,0.000,5.152,0.000,0.000,35.312
7290,4.200,0.299,1.293,0.000,5.262,0.000,0.000,35.234
7560,4.200,0.217,1.312,0.000,5.342,0.000,0.000,35.167
7830,4.200,0.160,1.326,0.000,5.401,0.000,0.000,35.063
8100,4.200,0.117,1.336,0.000,5.444,0.000,0.000,34.997
8370,4.200,0.088,1.344,0.000,5.476,0.000,0.000,35.020
8640,4.200,0.066,1.350,0.000,5.500,0.000,0.000,34.990
8909,4.192,0.000,1.350,0.000,5.501,0.000,0.000,34.978
9179,4.190,0.000,1.350,0.000,5.501,0.000,0.000,34.958
9449,4.188,0.000,1.350,0.000,5.501,0.000,0.000,34.975
9719,4.188,0.000,1.350,0.000,5.501,0.000,0.000,34.964
9989,4.187,0.000,1.350,0.000,5.501,0.000,0.000,34.952
10259,4.186,0.000,1.350,0.000,5.501,0.000,0.000,34.900
10529,4.186,0.000,1.350,0.000,5.501,0.000,0.000,34.936
10799,4.186,0.000,1.350,0.000,5.501,0.000,0.000,34.910
11069,4.185,0.000,1.350,0.000,5.501,0.000,0.000,34.904
11339,4.185,0.000,1.350,0.000,5.501,0.000,0.000,34.925
11609,4.185,0.000,1.350,0.000,5.501,0.000,0.000,34.867
11879,4.184,0.000,1.350,0.000,5.501,0.000,0.000,34.931
12149,4.184,0.000,1.350,0.000,5.501,0.000,0.000,35.019
12418,3.885,-3.350,1.350,0.162,5.501,0.634,0.000,36.073
12687,4.044,0.000,1.350,0.335,5.501,1.303,0.000,36.490
12957,4.057,0.000,1.350,0.335,5.501,1.303,0.000,35.627
13227,4.058,0.000,1.350,0.335,5.501,1.303,0.000,35.230
13497,4.059,0.000,1.350,0.335,5.501,1.303,0.000,35.078
13767,4.060,0.000,1.350,0.335,5.501,1.303,0.000,34.967
14037,4.060,0.000,1.350,0.335,5.501,1.303,0.000,34.910
14307,4.060,0.000,1.350,0.335,5.501,1.303,0.000,34.867
14577,4.060,0.000,1.350,0.335,5.501,1.303,0.000,34.878
14847,4.060,0.000,1.350,0.335,5.501,1.303,0.000,34.868
15117,4.060,0.000,1.350,0.335,5.501,1.303,0.000,34.849
15387,4.060,0.000,1.350,0.335,5.501,1.303,0.000,34.892
15657,4.061,0.000,1.350,0.335,5.501,1.303,0.000,34.886
15927,4.061,0.000,1.350,0.335,5.501,1.303,0.000,34.879
16197,4.061,0.000,1.350,0.335,5.501,1.303,0.000,34.877
16463,3.783,-3.350,1.356,0.491,5.527,1.897,0.000,35.765
16732,3.913,0.000,1.356,0.679,5.527,2.602,0.000,36.390
17002,3.933,0.000,1.356,0.679,5.527,2.602,0.000,35.752
17272,3.944,0.000,1.356,0.679,5.527,2.602,0.000,35.270
17542,3.945,0.000,1.356,0.679,5.527,2.602,0.000,35.098
17812,3.945,0.000,1.356,0.679,5.527,2.602,0.000,34.974
18082,3.946,0.000,1.356,0.679,5.527,2.602,0.000,34.950
18352,3.946,0.000,1.356,0.679,5.527,2.602,0.000,34.891
18622,3.946,0.000,1.356,0.679,5.527,2.602,0.000,34.884
18892,3.946,0.000,1.356,0.679,5.527,2.602,0.000,34.922
19162,3.946,0.000,1.356,0.679,5.527,2.602,0.000,34.902
19432,3.947,0.000,1.356,0.679,5.527,2.602,0.000,34.890
19702,3.947,0.000,1.356,0.679,5.527,2.602,0.000,34.856
19972,3.947,0.000,1.356,0.679,5.527,2.602,0.000,34.919
20242,3.947,0.000,1.356,0.679,5.527,2.602,0.000,34.888
20507,3.687,-3.350,1.362,0.819,5.552,3.125,0.000,35.606
20776,3.815,0.000,1.362,1.022,5.552,3.866,0.000,36.353
21046,3.835,0.000,1.362,1.022,5.552,3.866,0.000,35.740
21316,3.840,0.000,1.362,1.022,5.552,3.866,0.000,35.441
21586,3.849,0.000,1.362,1.022,5.552,3.866,0.000,35.229
21856,3.857,0.000,1.362,1.022,5.552,3.866,0.000,35.078
22126,3.859,0.000,1.362,1.022,5.552,3.866,0.000,34.965
22396,3.860,0.000,1.362,1.022,5.552,3.866,0.000,34.980
22666,3.860,0.000,1.362,1.022,5.552,3.866,0.000,34.934
22936,3.861,0.000,1.362,1.022,5.552,3.866,0.000,35.047
23206,3.861,0.000,1.362,1.022,5.552,3.866,0.000,34.990
23476,3.861,0.000,1.362,1.022,5.552,3.866,0.000,34.966
23746,3.861,0.000,1.362,1.022,5.552,3.866,0.000,34.964
24016,3.861,0.000,1.362,1.022,5.552,3.866,0.000,34.929
24286,3.861,0.000,1.362,1.022,5.552,3.866,0.000,34.928
24551,3.607,-3.350,1.369,1.148,5.577,4.324,-0.001,35.459
24820,3.714,0.000,1.369,1.365,5.577,5.101,0.001,36.388
25090,3.742,0.000,1.369,1.365,5.577,5.101,0.000,35.710
25360,3.746,0.000,1.369,1.365,5.577,5.101,0.000,35.451
25630,3.748,0.000,1.369,1.365,5.577,5.101,0.000,35.272
25900,3.750,0.000,1.369,1.365,5.577,5.101,0.000,35.170
26170,3.753,0.000,1.369,1.365,5.577,5.101,0.000,35.120
26440,3.758,0.000,1.369,1.365,5.577,5.101,0.000,35.033
26710,3.763,0.000,1.369,1.365,5.577,5.101,0.000,35.041
26980,3.766,0.000,1.369,1.365,5.577,5.101,0.000,34.890
27250,3.768,0.000,1.369,1.365,5.577,5.101,0.000,34.904
27520,3.769,0.000,1.369,1.365,5.577,5.101,0.000,34.906
27790,3.770,0.000,1.369,1.365,5.577,5.101,0.000,34.947
28060,3.770,0.000,1.369,1.365,5.577,5.101,0.000,34.883
28330,3.770,0.000,1.369,1.365,5.577,5.101,0.000,34.855
28596,3.521,-3.350,1.375,1.476,5.601,5.494,0.000,35.387
28865,3.619,0.000,1.375,1.709,5.601,6.303,0.001,36.256
29135,3.654,0.000,1.375,1.709,5.601,6.303,0.000,35.474
29405,3.658,0.000,1.375,1.709,5.601,6.303,0.000,35.215
29675,3.659,0.000,1.375,1.709,5.601,6.303,0.000,35.102
29945,3.660,0.000,1.375,1.709,5.601,6.303,0.000,34.981
30215,3.661,0.000,1.375,1.709,5.601,6.303,0.000,34.967
30485,3.661,0.000,1.375,1.709,5.601,6.303,0.000,34.925
30755,3.662,0.000,1.375,1.709,5.601,6.303,0.000,34.944
31025,3.662,0.000,1.375,1.709,5.601,6.303,0.000,34.945
31295,3.662,0.000,1.375,1.709,5.601,6.303,0.000,34.898
31565,3.662,0.000,1.375,1.709,5.601,6.303,0.000,34.903
31835,3.662,0.000,1.375,1.709,5.601,6.303,0.000,34.861
32105,3.662,0.000,1.375,1.709,5.601,6.303,0.000,34.897
32375,3.663,0.000,1.375,1.709,5.601,6.303,0.000,34.852
32640,3.430,-3.350,1.381,1.805,5.625,6.635,0.000,35.300
32909,3.518,0.000,1.381,2.052,5.625,7.475,0.003,36.560
33179,3.589,0.000,1.381,2.052,5.625,7.475,0.000,35.565
33449,3.594,0.000,1.381,2.052,5.625,7.475,0.000,35.178
33719,3.595,0.000,1.381,2.052,5.625,7.475,0.000,34.963
33989,3.596,0.000,1.381,2.052,5.625,7.475,0.000,35.001
34259,3.597,0.000,1.381,2.052,5.625,7.475,0.000,35.024
34529,3.597,0.000,1.381,2.052,5.625,7.475,0.000,34.996
34799,3.598,0.000,1.381,2.052,5.625,7.475,0.000,35.057
35069,3.598,0.000,1.381,2.052,5.625,7.475,0.000,35.064
35339,3.598,0.000,1.381,2.052,5.625,7.475,0.000,35.086
35609,3.599,0.000,1.381,2.052,5.625,7.475,0.000,35.071
35879,3.599,0.000,1.381,2.052,5.625,7.475,0.000,35.067
36149,3.599,0.000,1.381,2.052,5.625,7.475,0.000,35.061
36419,3.599,0.000,1.381,2.052,5.625,7.475,0.000,35.108
36684,3.364,-3.350,1.387,2.133,5.648,7.750,0.000,35.563
36954,3.274,-3.350,1.387,2.384,5.648,8.583,0.000,37.171
37224,3.520,0.000,1.387,2.396,5.648,8.619,0.000,36.099
37494,3.532,0.000,1.387,2.396,5.648,8.619,0.000,35.535
37764,3.537,0.000,1.387,2.396,5.648,8.619,0.000,35.313
38034,3.539,0.000,1.387,2.396,5.648,8.619,0.000,35.163
38304,3.540,0.000,1.387,2.396,5.648,8.619,0.000,35.093
38574,3.541,0.000,1.387,2.396,5.648,8.619,0.000,35.063
38844,3.542,0.000,1.387,2.396,5.648,8.619,0.000,35.065
39114,3.542,0.000,1.387,2.396,5.648,8.619,0.000,35.047
39384,3.542,0.000,1.387,2.396,5.648,8.619,0.000,35.050
39654,3.543,0.000,1.387,2.396,5.648,8.619,0.000,35.064
39924,3.543,0.000,1.387,2.396,5.648,8.619,0.000,35.059
40194,3.543,0.000,1.387,2.396,5.648,8.619,0.000,35.005
40464,3.544,0.000,1.387,2.396,5.648,8.619,0.000,35.020
40729,3.303,-3.350,1.394,2.462,5.671,8.840,-0.001,35.500
40999,3.174,-3.350,1.394,2.713,5.671,9.652,0.000,37.410
41268,3.421,0.000,1.394,2.739,5.671,9.735,0.000,36.461
41538,3.436,0.000,1.394,2.739,5.671,9.735,0.000,35.702
41808,3.441,0.000,1.394,2.739,5.671,9.735,0.000,35.340
42078,3.443,0.000,1.394,2.739,5.671,9.735,0.000,35.149
42348,3.444,0.000,1.394,2.739,5.671,9.735,0.000,35.082
42618,3.444,0.000,1.394,2.739,5.671,9.735,0.000,35.075
42888,3.445,0.000,1.394,2.739,5.671,9.735,0.000,35.046
43158,3.445,0.000,1.394,2.739,5.671,9.735,0.000,34.991
43428,3.445,0.000,1.394,2.739,5.671,9.735,0.000,34.968
43698,3.446,0.000,1.394,2.739,5.671,9.735,0.000,34.998
43968,3.446,0.000,1.394,2.739,5.671,9.735,0.000,34.947
44238,3.446,0.000,1.394,2.739,5.671,9.735,0.000,34.965
44508,3.446,0.000,1.394,2.739,5.671,9.735,0.000,34.961
44773,3.177,-3.350,1.400,2.790,5.693,9.900,-0.001,35.373
45043,2.930,-3.350,1.400,3.042,5.693,10.669,-0.001,38.083
45312,3.319,0.000,1.400,3.083,5.693,10.788,0.000,36.892
45582,3.325,0.000,1.400,3.083,5.693,10.788,0.000,35.861
45852,3.326,0.000,1.400,3.083,5.693,10.788,0.000,35.373
46122,3.328,0.000,1.400,3.083,5.693,10.788,0.000,35.144
46392,3.328,0.000,1.400,3.083,5.693,10.788,0.000,35.048
46662,3.329,0.000,1.400,3.083,5.693,10.788,0.000,35.010
46932,3.330,0.000,1.400,3.083,5.693,10.788,0.000,34.950
47202,3.330,0.000,1.400,3.083,5.693,10.788,0.000,34.940
47472,3.330,0.000,1.400,3.083,5.693,10.788,0.000,34.930
47742,3.331,0.000,1.400,3.083,5.693,10.788,0.000,34.883
48012,3.331,0.000,1.400,3.083,5.693,10.788,0.000,34.877
48282,3.331,0.000,1.400,3.083,5.693,10.788,0.000,34.978
48552,3.332,0.000,1.400,3.083,5.693,10.788,0.000,34.964
48818,2.818,-3.350,1.406,3.119,5.715,10.894,-0.005,35.486
48898,2.492,-3.350,1.406,3.193,5.715,11.092,-0.004,37.641