File: data/T35/HPPC/4.csv
time_s,voltage_v,current_a,chargecapacity_ah,dischargecapacity_ah,charge_energy_wh,discharge_energy_wh,voltagedot_v_per_s,temp_degc
1,3.772,0.000,0.000,0.000,0.000,0.000,0.000,35.101
273,3.772,0.000,0.000,0.000,0.000,0.000,0.000,35.135
545,3.772,0.000,0.000,0.000,0.000,0.000,0.000,35.109
817,3.772,0.000,0.000,0.000,0.000,0.000,0.000,35.135
1089,3.772,0.000,0.000,0.000,0.000,0.000,0.000,35.119
1361,3.772,0.000,0.000,0.000,0.000,0.000,0.000,35.237
1633,3.772,0.000,0.000,0.000,0.000,0.000,0.000,35.176
1905,3.772,0.000,0.000,0.000,0.000,0.000,0.000,35.125
2177,3.772,0.000,0.000,0.000,0.000,0.000,0.000,35.115
2449,3.772,0.000,0.000,0.000,0.000,0.000,0.000,35.102
2721,3.772,0.000,0.000,0.000,0.000,0.000,0.000,35.124
2993,3.772,0.000,0.000,0.000,0.000,0.000,0.000,35.128
3265,3.772,0.000,0.000,0.000,0.000,0.000,0.000,35.123
3537,3.772,0.000,0.000,0.000,0.000,0.000,0.000,35.094
3808,3.945,1.625,0.094,0.000,0.369,0.000,0.000,35.486
4080,3.984,1.625,0.217,0.000,0.856,0.000,0.000,35.876
4352,4.022,1.625,0.340,0.000,1.347,0.000,0.000,36.161
4624,4.058,1.625,0.462,0.000,1.843,0.000,0.000,36.336
4896,4.097,1.625,0.585,0.000,2.344,0.000,0.000,36.563
5168,4.140,1.625,0.708,0.000,2.850,0.000,0.000,36.667
5440,4.190,1.625,0.831,0.000,3.361,0.000,0.000,36.836
5711,4.200,1.275,0.941,0.000,3.826,0.000,0.000,36.843
5983,4.200,1.000,1.026,0.000,4.184,0.000,0.000,36.533
6255,4.200,0.814,1.095,0.000,4.470,0.000,0.000,36.217
6527,4.200,0.673,1.151,0.000,4.705,0.000,0.000,36.001
6799,4.200,0.551,1.197,0.000,4.898,0.000,0.000,35.771
7071,4.200,0.444,1.234,0.000,5.056,0.000,0.000,35.580
7343,4.200,0.351,1.264,0.000,5.181,0.000,0.000,35.448
7615,4.200,0.273,1.288,0.000,5.280,0.000,0.000,35.338
7887,4.200,0.209,1.306,0.000,5.356,0.000,0.000,35.240
8159,4.200,0.160,1.320,0.000,5.414,0.000,0.000,35.182
8431,4.200,0.123,1.330,0.000,5.459,0.000,0.000,35.162
8703,4.200,0.094,1.338,0.000,5.493,0.000,0.000,35.125
8975,4.200,0.073,1.345,0.000,5.520,0.000,0.000,35.065
9247,4.191,0.000,1.347,0.000,5.529,0.000,0.000,35.047
9519,4.189,0.000,1.347,0.000,5.529,0.000,0.000,34.990
9791,4.188,0.000,1.347,0.000,5.529,0.000,0.000,35.012
10063,4.187,0.000,1.347,0.000,5.529,0.000,0.000,34.973
10335,4.186,0.000,1.347,0.000,5.529,0.000,0.000,34.978
10607,4.186,0.000,1.347,0.000,5.529,0.000,0.000,34.972
10879,4.185,0.000,1.347,0.000,5.529,0.000,0.000,34.963
11151,4.185,0.000,1.347,0.000,5.529,0.000,0.000,34.964
11423,4.184,0.000,1.347,0.000,5.529,0.000,0.000,34.937
11695,4.184,0.000,1.347,0.000,5.529,0.000,0.000,34.975
11967,4.184,0.000,1.347,0.000,5.529,0.000,0.000,34.970
12239,4.183,0.000,1.347,0.000,5.529,0.000,0.000,35.050
12511,4.183,0.000,1.347,0.000,5.529,0.000,0.000,35.020
12782,3.833,-3.350,1.347,0.080,5.529,0.309,0.000,35.516
13054,3.747,-3.350,1.347,0.333,5.529,1.268,0.000,37.202
13325,4.055,0.000,1.347,0.335,5.529,1.275,0.000,36.296
13597,4.057,0.000,1.347,0.335,5.529,1.275,0.000,35.717
13869,4.058,0.000,1.347,0.335,5.529,1.275,0.000,35.390
14141,4.058,0.000,1.347,0.335,5.529,1.275,0.000,35.143
14413,4.059,0.000,1.347,0.335,5.529,1.275,0.000,35.023
14685,4.059,0.000,1.347,0.335,5.529,1.275,0.000,34.977
14957,4.059,0.000,1.347,0.335,5.529,1.275,0.000,34.982
15229,4.059,0.000,1.347,0.335,5.529,1.275,0.000,34.961
15501,4.059,0.000,1.347,0.335,5.529,1.275,0.000,34.947
15773,4.059,0.000,1.347,0.335,5.529,1.275,0.000,34.927
16045,4.060,0.000,1.347,0.335,5.529,1.275,0.000,34.958
16317,4.060,0.000,1.347,0.335,5.529,1.275,0.000,34.938
16589,4.060,0.000,1.347,0.335,5.529,1.275,0.000,34.915
16857,3.714,-3.350,1.353,0.437,5.556,1.656,0.000,35.601
17128,3.887,0.000,1.353,0.679,5.556,2.543,0.001,37.013
17400,3.928,0.000,1.353,0.679,5.556,2.543,0.000,36.409
17672,3.941,0.000,1.353,0.679,5.556,2.543,0.000,35.773
17944,3.943,0.000,1.353,0.679,5.556,2.543,0.000,35.351
18216,3.944,0.000,1.353,0.679,5.556,2.543,0.000,35.149
18488,3.944,0.000,1.353,0.679,5.556,2.543,0.000,35.084
18760,3.944,0.000,1.353,0.679,5.556,2.543,0.000,34.995
19032,3.945,0.000,1.353,0.679,5.556,2.543,0.000,34.944
19304,3.945,0.000,1.353,0.679,5.556,2.543,0.000,34.929
19576,3.945,0.000,1.353,0.679,5.556,2.543,0.000,34.874
19848,3.945,0.000,1.353,0.679,5.556,2.543,0.000,34.876
20120,3.945,0.000,1.353,0.679,5.556,2.543,0.000,34.909
20392,3.945,0.000,1.353,0.679,5.556,2.543,0.000,34.933
20664,3.945,0.000,1.353,0.679,5.556,2.543,0.000,34.924
20931,3.602,-3.350,1.359,0.793,5.582,2.960,0.000,35.543
21202,3.803,0.000,1.359,1.022,5.582,3.775,0.001,36.940
21474,3.832,0.000,1.359,1.022,5.582,3.775,0.000,36.295
21746,3.838,0.000,1.359,1.022,5.582,3.775,0.000,35.852
22018,3.847,0.000,1.359,1.022,5.582,3.775,0.000,35.528
22290,3.855,0.000,1.359,1.022,5.582,3.775,0.000,35.249
22562,3.857,0.000,1.359,1.022,5.582,3.775,0.000,35.119
22834,3.858,0.000,1.359,1.022,5.582,3.775,0.000,35.062
23106,3.859,0.000,1.359,1.022,5.582,3.775,0.000,35.221
23378,3.859,0.000,1.359,1.022,5.582,3.775,0.000,34.996
23650,3.859,0.000,1.359,1.022,5.582,3.775,0.000,34.970
23922,3.859,0.000,1.359,1.022,5.582,3.775,0.000,34.961
24194,3.859,0.000,1.359,1.022,5.582,3.775,0.000,34.961
24466,3.859,0.000,1.359,1.022,5.582,3.775,0.000,34.931
24738,3.860,0.000,1.359,1.022,5.582,3.775,0.000,34.863
25006,3.511,-3.350,1.366,1.150,5.607,4.228,0.000,35.677
25277,3.715,0.000,1.366,1.366,5.607,4.977,0.001,36.928
25549,3.740,0.000,1.366,1.366,5.607,4.977,0.000,36.250
25821,3.743,0.000,1.366,1.366,5.607,4.977,0.000,35.795
26093,3.746,0.000,1.366,1.366,5.607,4.977,0.000,35.552
26365,3.748,0.000,1.366,1.366,5.607,4.977,0.000,35.360
26637,3.750,0.000,1.366,1.366,5.607,4.977,0.000,35.255
26909,3.754,0.000,1.366,1.366,5.607,4.977,0.000,35.129
27181,3.759,0.000,1.366,1.366,5.607,4.977,0.000,35.049
27453,3.763,0.000,1.366,1.366,5.607,4.977,0.000,34.994
27725,3.765,0.000,1.366,1.366,5.607,4.977,0.000,34.928
27997,3.766,0.000,1.366,1.366,5.607,4.977,0.000,34.941
28269,3.767,0.000,1.366,1.366,5.607,4.977,0.000,34.901
28541,3.768,0.000,1.366,1.366,5.607,4.977,0.000,34.866
28813,3.768,0.000,1.366,1.366,5.607,4.977,0.000,34.845
29080,3.411,-3.350,1.372,1.506,5.632,5.461,0.000,35.650
29351,3.634,0.000,1.372,1.709,5.632,6.146,0.000,36.662
29623,3.652,0.000,1.372,1.709,5.632,6.146,0.000,35.856
29895,3.655,0.000,1.372,1.709,5.632,6.146,0.000,35.422
30167,3.657,0.000,1.372,1.709,5.632,6.146,0.000,35.227
30439,3.658,0.000,1.372,1.709,5.632,6.146,0.000,35.063
30711,3.658,0.000,1.372,1.709,5.632,6.146,0.000,35.021
30983,3.658,0.000,1.372,1.709,5.632,6.146,0.000,34.927
31255,3.659,0.000,1.372,1.709,5.632,6.146,0.000,34.941
31527,3.659,0.000,1.372,1.709,5.632,6.146,0.000,34.897
31799,3.659,0.000,1.372,1.709,5.632,6.146,0.000,34.853
32071,3.660,0.000,1.372,1.709,5.632,6.146,0.000,34.863
32343,3.660,0.000,1.372,1.709,5.632,6.146,0.000,34.840
32615,3.660,0.000,1.372,1.709,5.632,6.146,0.000,34.794
32887,3.660,0.000,1.372,1.709,5.632,6.146,0.000,34.796
33154,3.310,-3.350,1.378,1.863,5.656,6.660,0.000,35.832
33425,3.565,0.000,1.378,2.052,5.656,7.284,0.000,36.905
33697,3.589,0.000,1.378,2.052,5.656,7.284,0.000,35.859
33969,3.592,0.000,1.378,2.052,5.656,7.284,0.000,35.520
34241,3.593,0.000,1.378,2.052,5.656,7.284,0.000,35.203
34513,3.594,0.000,1.378,2.052,5.656,7.284,0.000,35.086
34785,3.595,0.000,1.378,2.052,5.656,7.284,0.000,35.035
35057,3.595,0.000,1.378,2.052,5.656,7.284,0.000,35.050
35329,3.596,0.000,1.378,2.052,5.656,7.284,0.000,35.028
35601,3.596,0.000,1.378,2.052,5.656,7.284,0.000,35.051
35873,3.596,0.000,1.378,2.052,5.656,7.284,0.000,35.018
36145,3.596,0.000,1.378,2.052,5.656,7.284,0.000,35.006
36417,3.596,0.000,1.378,2.052,5.656,7.284,0.000,34.996
36689,3.597,0.000,1.378,2.052,5.656,7.284,0.000,35.058
36960,3.368,-3.000,1.378,2.054,5.656,7.289,-0.004,34.981
37229,3.226,-3.350,1.385,2.219,5.679,7.829,-0.001,36.446
37500,3.490,0.000,1.385,2.396,5.679,8.394,0.000,37.625
37772,3.523,0.000,1.385,2.396,5.679,8.394,0.000,36.365
38044,3.532,0.000,1.385,2.396,5.679,8.394,0.000,35.707
38316,3.535,0.000,1.385,2.396,5.679,8.394,0.000,35.323
38588,3.537,0.000,1.385,2.396,5.679,8.394,0.000,35.171
38860,3.538,0.000,1.385,2.396,5.679,8.394,0.000,35.101
39132,3.539,0.000,1.385,2.396,5.679,8.394,0.000,35.035
39404,3.539,0.000,1.385,2.396,5.679,8.394,0.000,35.045
39676,3.540,0.000,1.385,2.396,5.679,8.394,0.000,34.951
39948,3.540,0.000,1.385,2.396,5.679,8.394,0.000,34.985
40220,3.540,0.000,1.385,2.396,5.679,8.394,0.000,34.973
40492,3.541,0.000,1.385,2.396,5.679,8.394,0.000,34.976
40764,3.541,0.000,1.385,2.396,5.679,8.394,0.000,34.943
41034,3.523,0.000,1.385,2.404,5.679,8.422,0.001,35.004
41303,3.133,-3.350,1.391,2.576,5.703,8.968,-0.001,36.711
41574,3.396,0.000,1.391,2.739,5.703,9.476,0.000,37.898
41846,3.427,0.000,1.391,2.739,5.703,9.476,0.000,36.712
42118,3.435,0.000,1.391,2.739,5.703,9.476,0.000,35.935
42390,3.438,0.000,1.391,2.739,5.703,9.476,0.000,35.486
42662,3.439,0.000,1.391,2.739,5.703,9.476,0.000,35.241
42934,3.440,0.000,1.391,2.739,5.703,9.476,0.000,35.086
43206,3.441,0.000,1.391,2.739,5.703,9.476,0.000,34.975
43478,3.441,0.000,1.391,2.739,5.703,9.476,0.000,34.919
43750,3.441,0.000,1.391,2.739,5.703,9.476,0.000,34.976
44022,3.442,0.000,1.391,2.739,5.703,9.476,0.000,34.931
44294,3.442,0.000,1.391,2.739,5.703,9.476,0.000,34.934
44566,3.442,0.000,1.391,2.739,5.703,9.476,0.000,34.968
44838,3.442,0.000,1.391,2.739,5.703,9.476,0.000,35.003
45108,3.429,0.000,1.391,2.748,5.703,9.502,0.000,35.009
45377,2.970,-3.350,1.397,2.932,5.725,10.063,-0.001,37.175
45648,3.312,0.000,1.397,3.083,5.725,10.502,0.000,38.428
45920,3.324,0.000,1.397,3.083,5.725,10.502,0.000,36.849
46192,3.327,0.000,1.397,3.083,5.725,10.502,0.000,35.990
46464,3.328,0.000,1.397,3.083,5.725,10.502,0.000,35.493
46736,3.329,0.000,1.397,3.083,5.725,10.502,0.000,35.209
47008,3.329,0.000,1.397,3.083,5.725,10.502,0.000,35.050
47280,3.330,0.000,1.397,3.083,5.725,10.502,0.000,35.015
47552,3.330,0.000,1.397,3.083,5.725,10.502,0.000,34.926
47824,3.331,0.000,1.397,3.083,5.725,10.502,0.000,34.877
48096,3.331,0.000,1.397,3.083,5.725,10.502,0.000,34.928
48368,3.331,0.000,1.397,3.083,5.725,10.502,0.000,34.889
48640,3.331,0.000,1.397,3.083,5.725,10.502,0.000,34.868
48912,3.332,0.000,1.397,3.083,5.725,10.502,0.000,34.932
49183,3.317,0.000,1.397,3.091,5.725,10.526,0.000,34.997
49368,2.491,-3.350,1.403,3.210,5.748,10.846,-0.003,38.068