File: data/T25/HPPC/3.csv
time_s,voltage_v,current_a,chargecapacity_ah,dischargecapacity_ah,charge_energy_wh,discharge_energy_wh,voltagedot_v_per_s,temp_degc
1,4.032,0.000,0.000,0.000,0.000,0.000,0.000,25.282
216,4.179,1.625,0.070,0.000,0.293,0.000,0.000,25.668
432,4.200,1.369,0.164,0.000,0.685,0.000,0.000,25.991
648,4.200,0.994,0.234,0.000,0.980,0.000,0.000,25.974
864,4.200,0.715,0.285,0.000,1.194,0.000,0.000,25.820
1080,4.200,0.512,0.321,0.000,1.347,0.000,0.000,25.685
1296,4.200,0.371,0.348,0.000,1.457,0.000,0.000,25.582
1512,4.200,0.274,0.367,0.000,1.537,0.000,0.000,25.451
1728,4.200,0.205,0.381,0.000,1.597,0.000,0.000,25.389
1944,4.200,0.157,0.392,0.000,1.642,0.000,0.000,25.365
2160,4.200,0.122,0.400,0.000,1.677,0.000,0.000,25.288
2376,4.200,0.096,0.407,0.000,1.705,0.000,0.000,25.293
2592,4.200,0.077,0.412,0.000,1.726,0.000,0.000,25.241
2808,4.193,0.000,0.415,0.000,1.740,0.000,0.000,25.238
3024,4.190,0.000,0.415,0.000,1.740,0.000,0.000,25.225
3240,4.188,0.000,0.415,0.000,1.740,0.000,0.000,25.244
3456,4.187,0.000,0.415,0.000,1.740,0.000,0.000,25.204
3672,4.186,0.000,0.415,0.000,1.740,0.000,0.000,25.208
3888,4.186,0.000,0.415,0.000,1.740,0.000,0.000,25.149
4104,4.185,0.000,0.415,0.000,1.740,0.000,0.000,25.182
4320,4.185,0.000,0.415,0.000,1.740,0.000,0.000,25.214
4536,4.184,0.000,0.415,0.000,1.740,0.000,0.000,25.186
4752,4.184,0.000,0.415,0.000,1.740,0.000,0.000,25.182
4968,4.184,0.000,0.415,0.000,1.740,0.000,0.000,25.215
5184,4.184,0.000,0.415,0.000,1.740,0.000,0.000,25.192
5400,4.183,0.000,0.415,0.000,1.740,0.000,0.000,25.136
5616,4.183,0.000,0.415,0.000,1.740,0.000,0.000,25.185
5832,4.183,0.000,0.415,0.000,1.740,0.000,0.000,25.187
6048,4.183,0.000,0.415,0.000,1.740,0.000,0.000,25.198
6264,4.183,0.000,0.415,0.000,1.740,0.000,0.000,25.162
6479,3.852,-3.350,0.415,0.110,1.740,0.426,0.000,26.124
6695,3.796,-3.350,0.415,0.311,1.740,1.195,0.000,27.302
6910,4.045,0.000,0.415,0.335,1.740,1.287,0.000,26.525
7126,4.053,0.000,0.415,0.335,1.740,1.287,0.000,25.876
7342,4.055,0.000,0.415,0.335,1.740,1.287,0.000,25.564
7558,4.056,0.000,0.415,0.335,1.740,1.287,0.000,25.351
7774,4.056,0.000,0.415,0.335,1.740,1.287,0.000,25.268
7990,4.057,0.000,0.415,0.335,1.740,1.287,0.000,25.216
8206,4.057,0.000,0.415,0.335,1.740,1.287,0.000,25.207
8422,4.057,0.000,0.415,0.335,1.740,1.287,0.000,25.154
8638,4.058,0.000,0.415,0.335,1.740,1.287,0.000,25.221
8854,4.058,0.000,0.415,0.335,1.740,1.287,0.000,25.161
9070,4.058,0.000,0.415,0.335,1.740,1.287,0.000,25.154
9286,4.058,0.000,0.415,0.335,1.740,1.287,0.000,25.150
9502,4.058,0.000,0.415,0.335,1.740,1.287,0.000,25.140
9718,4.058,0.000,0.415,0.335,1.740,1.287,0.000,25.156
9934,4.058,0.000,0.415,0.335,1.740,1.287,0.000,25.188
10150,4.058,0.000,0.415,0.335,1.740,1.287,0.000,25.137
10364,4.048,0.000,0.415,0.343,1.740,1.319,0.000,25.209
10577,3.745,-3.350,0.421,0.489,1.766,1.868,-0.001,26.207
10792,3.871,0.000,0.421,0.679,1.766,2.573,0.001,27.138
11008,3.919,0.000,0.421,0.679,1.766,2.573,0.000,26.344
11224,3.927,0.000,0.421,0.679,1.766,2.573,0.000,25.888
11440,3.936,0.000,0.421,0.679,1.766,2.573,0.000,25.572
11656,3.941,0.000,0.421,0.679,1.766,2.573,0.000,25.413
11872,3.942,0.000,0.421,0.679,1.766,2.573,0.000,25.324
12088,3.943,0.000,0.421,0.679,1.766,2.573,0.000,25.122
12304,3.943,0.000,0.421,0.679,1.766,2.573,0.000,25.153
12520,3.943,0.000,0.421,0.679,1.766,2.573,0.000,25.139
12736,3.943,0.000,0.421,0.679,1.766,2.573,0.000,25.132
12952,3.944,0.000,0.421,0.679,1.766,2.573,0.000,25.148
13168,3.944,0.000,0.421,0.679,1.766,2.573,0.000,25.111
13384,3.944,0.000,0.421,0.679,1.766,2.573,0.000,25.129
13600,3.944,0.000,0.421,0.679,1.766,2.573,0.000,25.155
13816,3.944,0.000,0.421,0.679,1.766,2.573,0.000,25.169
14032,3.944,0.000,0.421,0.679,1.766,2.573,0.000,25.164
14248,3.944,0.000,0.421,0.679,1.766,2.573,0.000,25.171
14461,3.947,0.000,0.428,0.687,1.792,2.605,0.000,25.199
14676,3.637,-3.350,0.428,0.867,1.792,3.269,0.000,26.161
14891,3.803,0.000,0.428,1.022,1.792,3.827,0.000,26.876
15107,3.829,0.000,0.428,1.022,1.792,3.827,0.000,26.124
15323,3.834,0.000,0.428,1.022,1.792,3.827,0.000,25.793
15539,3.837,0.000,0.428,1.022,1.792,3.827,0.000,25.545
15755,3.840,0.000,0.428,1.022,1.792,3.827,0.000,25.439
15971,3.844,0.000,0.428,1.022,1.792,3.827,0.000,25.369
16187,3.850,0.000,0.428,1.022,1.792,3.827,0.000,25.262
16403,3.855,0.000,0.428,1.022,1.792,3.827,0.000,25.278
16619,3.857,0.000,0.428,1.022,1.792,3.827,0.000,25.191
16835,3.858,0.000,0.428,1.022,1.792,3.827,0.000,25.163
17051,3.858,0.000,0.428,1.022,1.792,3.827,0.000,25.168
17267,3.859,0.000,0.428,1.022,1.792,3.827,0.000,25.163
17483,3.859,0.000,0.428,1.022,1.792,3.827,0.000,25.121
17699,3.859,0.000,0.428,1.022,1.792,3.827,0.000,25.139
17915,3.859,0.000,0.428,1.022,1.792,3.827,0.000,25.175
18131,3.859,0.000,0.428,1.022,1.792,3.827,0.000,25.149
18347,3.859,0.000,0.428,1.022,1.792,3.827,0.000,25.060
18558,3.639,-3.350,0.434,1.045,1.817,3.912,-0.002,25.247
18774,3.539,-3.350,0.434,1.246,1.817,4.632,0.000,26.338
18989,3.720,0.000,0.434,1.365,1.817,5.050,0.000,26.683
19205,3.736,0.000,0.434,1.365,1.817,5.050,0.000,26.005
19421,3.741,0.000,0.434,1.365,1.817,5.050,0.000,25.700
19637,3.743,0.000,0.434,1.365,1.817,5.050,0.000,25.519
19853,3.744,0.000,0.434,1.365,1.817,5.050,0.000,25.419
20069,3.746,0.000,0.434,1.365,1.817,5.050,0.000,25.393
20285,3.747,0.000,0.434,1.365,1.817,5.050,0.000,25.379
20501,3.748,0.000,0.434,1.365,1.817,5.050,0.000,25.290
20717,3.749,0.000,0.434,1.365,1.817,5.050,0.000,25.275
20933,3.751,0.000,0.434,1.365,1.817,5.050,0.000,25.202
21149,3.753,0.000,0.434,1.365,1.817,5.050,0.000,25.243
21365,3.755,0.000,0.434,1.365,1.817,5.050,0.000,25.172
21581,3.758,0.000,0.434,1.365,1.817,5.050,0.000,25.178
21797,3.760,0.000,0.434,1.365,1.817,5.050,0.000,25.141
22013,3.762,0.000,0.434,1.365,1.817,5.050,0.000,25.121
22229,3.763,0.000,0.434,1.365,1.817,5.050,0.000,25.119
22445,3.765,0.000,0.434,1.365,1.817,5.050,0.000,25.138
22656,3.513,-3.350,0.440,1.424,1.841,5.258,-0.001,25.442
22872,3.435,-3.350,0.440,1.625,1.841,5.956,0.000,26.416
23087,3.639,0.000,0.440,1.709,1.841,6.243,0.000,26.342
23303,3.650,0.000,0.440,1.709,1.841,6.243,0.000,25.743
23519,3.653,0.000,0.440,1.709,1.841,6.243,0.000,25.452
23735,3.654,0.000,0.440,1.709,1.841,6.243,0.000,25.320
23951,3.655,0.000,0.440,1.709,1.841,6.243,0.000,25.200
24167,3.656,0.000,0.440,1.709,1.841,6.243,0.000,25.184
24383,3.656,0.000,0.440,1.709,1.841,6.243,0.000,25.194
24599,3.657,0.000,0.440,1.709,1.841,6.243,0.000,25.188
24815,3.657,0.000,0.440,1.709,1.841,6.243,0.000,25.118
25031,3.658,0.000,0.440,1.709,1.841,6.243,0.000,25.122
25247,3.658,0.000,0.440,1.709,1.841,6.243,0.000,25.138
25463,3.658,0.000,0.440,1.709,1.841,6.243,0.000,25.121
25679,3.658,0.000,0.440,1.709,1.841,6.243,0.000,25.147
25895,3.658,0.000,0.440,1.709,1.841,6.243,0.000,25.197
26111,3.659,0.000,0.440,1.709,1.841,6.243,0.000,25.115
26327,3.659,0.000,0.440,1.709,1.841,6.243,0.000,25.153
26543,3.659,0.000,0.440,1.709,1.841,6.243,0.000,25.084
26755,3.399,-3.350,0.446,1.803,1.865,6.566,0.000,25.699
26971,3.332,-3.350,0.446,2.004,1.865,7.242,0.000,26.951
27186,3.573,0.000,0.446,2.052,1.865,7.402,0.000,26.400
27402,3.586,0.000,0.446,2.052,1.865,7.402,0.000,25.773
27618,3.590,0.000,0.446,2.052,1.865,7.402,0.000,25.464
27834,3.592,0.000,0.446,2.052,1.865,7.402,0.000,25.337
28050,3.592,0.000,0.446,2.052,1.865,7.402,0.000,25.200
28266,3.593,0.000,0.446,2.052,1.865,7.402,0.000,25.208
28482,3.594,0.000,0.446,2.052,1.865,7.402,0.000,25.175
28698,3.594,0.000,0.446,2.052,1.865,7.402,0.000,25.161
28914,3.594,0.000,0.446,2.052,1.865,7.402,0.000,25.068
29130,3.595,0.000,0.446,2.052,1.865,7.402,0.000,25.112
29346,3.595,0.000,0.446,2.052,1.865,7.402,0.000,25.100
29562,3.595,0.000,0.446,2.052,1.865,7.402,0.000,25.095
29778,3.595,0.000,0.446,2.052,1.865,7.402,0.000,25.099
29994,3.595,0.000,0.446,2.052,1.865,7.402,0.000,25.122
30210,3.595,0.000,0.446,2.052,1.865,7.402,0.000,25.083
30426,3.595,0.000,0.446,2.052,1.865,7.402,0.000,25.134
30640,3.579,0.000,0.446,2.061,1.865,7.431,0.001,25.179
30853,3.302,-3.350,0.453,2.182,1.888,7.836,-0.001,26.151
31069,3.233,-3.350,0.453,2.383,1.888,8.492,0.000,27.482
31284,3.499,0.000,0.453,2.396,1.888,8.534,0.000,26.533
31500,3.519,0.000,0.453,2.396,1.888,8.534,0.000,25.805
31716,3.526,0.000,0.453,2.396,1.888,8.534,0.000,25.451
31932,3.530,0.000,0.453,2.396,1.888,8.534,0.000,25.315
32148,3.533,0.000,0.453,2.396,1.888,8.534,0.000,25.259
32364,3.535,0.000,0.453,2.396,1.888,8.534,0.000,25.126
32580,3.536,0.000,0.453,2.396,1.888,8.534,0.000,25.107
32796,3.537,0.000,0.453,2.396,1.888,8.534,0.000,25.149
33012,3.537,0.000,0.453,2.396,1.888,8.534,0.000,25.151
33228,3.538,0.000,0.453,2.396,1.888,8.534,0.000,25.102
33444,3.538,0.000,0.453,2.396,1.888,8.534,0.000,25.092
33660,3.539,0.000,0.453,2.396,1.888,8.534,0.000,25.124
33876,3.539,0.000,0.453,2.396,1.888,8.534,0.000,25.059
34092,3.539,0.000,0.453,2.396,1.888,8.534,0.000,25.025
34308,3.539,0.000,0.453,2.396,1.888,8.534,0.000,25.076
34524,3.540,0.000,0.453,2.396,1.888,8.534,0.000,25.105
34737,3.660,2.250,0.455,2.404,1.897,8.563,0.002,25.140
34951,3.195,-3.350,0.459,2.560,1.911,9.072,-0.001,26.605
35166,3.356,0.000,0.459,2.739,1.911,9.633,0.001,28.083
35382,3.402,0.000,0.459,2.739,1.911,9.633,0.000,26.808
35598,3.420,0.000,0.459,2.739,1.911,9.633,0.000,26.042
35814,3.429,0.000,0.459,2.739,1.911,9.633,0.000,25.626
36030,3.434,0.000,0.459,2.739,1.911,9.633,0.000,25.392
36246,3.437,0.000,0.459,2.739,1.911,9.633,0.000,25.241
36462,3.439,0.000,0.459,2.739,1.911,9.633,0.000,25.206
36678,3.440,0.000,0.459,2.739,1.911,9.633,0.000,25.171
36894,3.441,0.000,0.459,2.739,1.911,9.633,0.000,25.153
37110,3.441,0.000,0.459,2.739,1.911,9.633,0.000,25.113
37326,3.442,0.000,0.459,2.739,1.911,9.633,0.000,25.126
37542,3.442,0.000,0.459,2.739,1.911,9.633,0.000,25.088
37758,3.443,0.000,0.459,2.739,1.911,9.633,0.000,25.139
37974,3.443,0.000,0.459,2.739,1.911,9.633,0.000,25.144
38190,3.443,0.000,0.459,2.739,1.911,9.633,0.000,25.146
38406,3.443,0.000,0.459,2.739,1.911,9.633,0.000,25.182
38622,3.444,0.000,0.459,2.739,1.911,9.633,0.000,25.194
38835,3.445,0.000,0.465,2.747,1.933,9.660,0.000,25.267
39050,2.865,-3.350,0.465,2.939,1.933,10.239,-0.002,28.001
39200,2.491,-3.350,0.465,3.079,1.933,10.616,-0.004,30.830