File: data/T25/HPPC/4.csv
time_s,voltage_v,current_a,chargecapacity_ah,dischargecapacity_ah,charge_energy_wh,discharge_energy_wh,voltagedot_v_per_s,temp_degc
1,4.033,0.000,0.000,0.000,0.000,0.000,0.000,25.100
237,4.200,1.420,0.077,0.000,0.322,0.000,0.000,25.542
475,4.200,1.100,0.159,0.000,0.669,0.000,0.000,25.821
713,4.200,0.860,0.224,0.000,0.940,0.000,0.000,25.865
951,4.200,0.659,0.274,0.000,1.150,0.000,0.000,25.769
1189,4.200,0.494,0.312,0.000,1.309,0.000,0.000,25.583
1427,4.200,0.367,0.340,0.000,1.428,0.000,0.000,25.495
1665,4.200,0.271,0.361,0.000,1.516,0.000,0.000,25.401
1903,4.200,0.203,0.377,0.000,1.581,0.000,0.000,25.344
2141,4.200,0.153,0.388,0.000,1.630,0.000,0.000,25.237
2379,4.200,0.117,0.397,0.000,1.667,0.000,0.000,25.236
2617,4.200,0.091,0.404,0.000,1.696,0.000,0.000,25.174
2855,4.200,0.071,0.409,0.000,1.718,0.000,0.000,25.156
3093,4.191,0.000,0.411,0.000,1.725,0.000,0.000,25.097
3331,4.189,0.000,0.411,0.000,1.725,0.000,0.000,25.089
3569,4.187,0.000,0.411,0.000,1.725,0.000,0.000,25.075
3807,4.186,0.000,0.411,0.000,1.725,0.000,0.000,25.052
4045,4.186,0.000,0.411,0.000,1.725,0.000,0.000,25.019
4283,4.185,0.000,0.411,0.000,1.725,0.000,0.000,25.044
4521,4.185,0.000,0.411,0.000,1.725,0.000,0.000,25.033
4759,4.184,0.000,0.411,0.000,1.725,0.000,0.000,25.060
4997,4.184,0.000,0.411,0.000,1.725,0.000,0.000,25.060
5235,4.184,0.000,0.411,0.000,1.725,0.000,0.000,25.012
5473,4.184,0.000,0.411,0.000,1.725,0.000,0.000,25.055
5711,4.183,0.000,0.411,0.000,1.725,0.000,0.000,25.080
5949,4.183,0.000,0.411,0.000,1.725,0.000,0.000,25.002
6187,4.183,0.000,0.411,0.000,1.725,0.000,0.000,25.016
6425,4.183,0.000,0.411,0.000,1.725,0.000,0.000,25.071
6662,3.787,-3.350,0.411,0.109,1.725,0.416,0.000,25.968
6900,3.721,-3.350,0.411,0.330,1.725,1.247,0.000,27.638
7137,4.051,0.000,0.411,0.335,1.725,1.265,0.000,26.845
7375,4.054,0.000,0.411,0.335,1.725,1.265,0.000,26.094
7613,4.056,0.000,0.411,0.335,1.725,1.265,0.000,25.693
7851,4.056,0.000,0.411,0.335,1.725,1.265,0.000,25.391
8089,4.056,0.000,0.411,0.335,1.725,1.265,0.000,25.234
8327,4.057,0.000,0.411,0.335,1.725,1.265,0.000,25.146
8565,4.057,0.000,0.411,0.335,1.725,1.265,0.000,25.077
8803,4.057,0.000,0.411,0.335,1.725,1.265,0.000,25.047
9041,4.057,0.000,0.411,0.335,1.725,1.265,0.000,25.051
9279,4.058,0.000,0.411,0.335,1.725,1.265,0.000,25.033
9517,4.058,0.000,0.411,0.335,1.725,1.265,0.000,25.043
9755,4.058,0.000,0.411,0.335,1.725,1.265,0.000,25.053
9993,4.058,0.000,0.411,0.335,1.725,1.265,0.000,25.005
10231,4.058,0.000,0.411,0.335,1.725,1.265,0.000,25.014
10469,4.058,0.000,0.411,0.335,1.725,1.265,0.000,25.024
10702,3.691,-3.350,0.417,0.434,1.752,1.633,-0.001,25.712
10940,3.609,-3.350,0.417,0.655,1.752,2.441,0.000,27.352
11177,3.918,0.000,0.417,0.679,1.752,2.525,0.000,26.890
11415,3.927,0.000,0.417,0.679,1.752,2.525,0.000,26.285
11653,3.937,0.000,0.417,0.679,1.752,2.525,0.000,25.793
11891,3.941,0.000,0.417,0.679,1.752,2.525,0.000,25.470
12129,3.942,0.000,0.417,0.679,1.752,2.525,0.000,25.252
12367,3.942,0.000,0.417,0.679,1.752,2.525,0.000,25.144
12605,3.942,0.000,0.417,0.679,1.752,2.525,0.000,25.103
12843,3.943,0.000,0.417,0.679,1.752,2.525,0.000,25.045
13081,3.943,0.000,0.417,0.679,1.752,2.525,0.000,25.067
13319,3.943,0.000,0.417,0.679,1.752,2.525,0.000,25.051
13557,3.943,0.000,0.417,0.679,1.752,2.525,0.000,25.030
13795,3.943,0.000,0.417,0.679,1.752,2.525,0.000,25.019
14033,3.943,0.000,0.417,0.679,1.752,2.525,0.000,24.983
14271,3.943,0.000,0.417,0.679,1.752,2.525,0.000,24.999
14509,3.943,0.000,0.417,0.679,1.752,2.525,0.000,24.982
14742,3.595,-3.350,0.423,0.759,1.778,2.815,0.000,25.525
14980,3.518,-3.350,0.423,0.980,1.778,3.603,0.000,27.091
15217,3.825,0.000,0.423,1.022,1.778,3.750,0.000,26.862
15455,3.832,0.000,0.423,1.022,1.778,3.750,0.000,26.329
15693,3.835,0.000,0.423,1.022,1.778,3.750,0.000,25.853
15931,3.838,0.000,0.423,1.022,1.778,3.750,0.000,25.656
16169,3.844,0.000,0.423,1.022,1.778,3.750,0.000,25.487
16407,3.850,0.000,0.423,1.022,1.778,3.750,0.000,25.341
16645,3.855,0.000,0.423,1.022,1.778,3.750,0.000,25.173
16883,3.856,0.000,0.423,1.022,1.778,3.750,0.000,25.128
17121,3.857,0.000,0.423,1.022,1.778,3.750,0.000,25.114
17359,3.857,0.000,0.423,1.022,1.778,3.750,0.000,25.083
17597,3.858,0.000,0.423,1.022,1.778,3.750,0.000,25.049
17835,3.858,0.000,0.423,1.022,1.778,3.750,0.000,25.019
18073,3.858,0.000,0.423,1.022,1.778,3.750,0.000,25.062
18311,3.858,0.000,0.423,1.022,1.778,3.750,0.000,24.933
18549,3.858,0.000,0.423,1.022,1.778,3.750,0.000,24.965
18783,3.519,-3.350,0.430,1.084,1.803,3.968,-0.001,25.455
19021,3.431,-3.350,0.430,1.305,1.803,4.738,0.000,26.932
19258,3.730,0.000,0.430,1.366,1.803,4.944,0.000,26.871
19496,3.737,0.000,0.430,1.366,1.803,4.944,0.000,26.226
19734,3.740,0.000,0.430,1.366,1.803,4.944,0.000,25.831
19972,3.742,0.000,0.430,1.366,1.803,4.944,0.000,25.630
20210,3.743,0.000,0.430,1.366,1.803,4.944,0.000,25.506
20448,3.745,0.000,0.430,1.366,1.803,4.944,0.000,25.306
20686,3.746,0.000,0.430,1.366,1.803,4.944,0.000,25.269
20924,3.747,0.000,0.430,1.366,1.803,4.944,0.000,25.232
21162,3.749,0.000,0.430,1.366,1.803,4.944,0.000,25.219
21400,3.751,0.000,0.430,1.366,1.803,4.944,0.000,25.120
21638,3.754,0.000,0.430,1.366,1.803,4.944,0.000,25.139
21876,3.756,0.000,0.430,1.366,1.803,4.944,0.000,25.052
22114,3.759,0.000,0.430,1.366,1.803,4.944,0.000,25.057
22352,3.761,0.000,0.430,1.366,1.803,4.944,0.000,25.039
22590,3.762,0.000,0.430,1.366,1.803,4.944,0.000,24.996
22823,3.435,-3.350,0.436,1.408,1.828,5.093,-0.001,25.269
23061,3.346,-3.350,0.436,1.630,1.828,5.843,-0.001,26.727
23298,3.641,0.000,0.436,1.709,1.828,6.107,0.000,26.762
23536,3.649,0.000,0.436,1.709,1.828,6.107,0.000,26.062
23774,3.651,0.000,0.436,1.709,1.828,6.107,0.000,25.638
24012,3.652,0.000,0.436,1.709,1.828,6.107,0.000,25.385
24250,3.653,0.000,0.436,1.709,1.828,6.107,0.000,25.209
24488,3.654,0.000,0.436,1.709,1.828,6.107,0.000,25.168
24726,3.654,0.000,0.436,1.709,1.828,6.107,0.000,25.107
24964,3.655,0.000,0.436,1.709,1.828,6.107,0.000,25.088
25202,3.655,0.000,0.436,1.709,1.828,6.107,0.000,24.988
25440,3.655,0.000,0.436,1.709,1.828,6.107,0.000,25.059
25678,3.656,0.000,0.436,1.709,1.828,6.107,0.000,25.016
25916,3.656,0.000,0.436,1.709,1.828,6.107,0.000,25.011
26154,3.656,0.000,0.436,1.709,1.828,6.107,0.000,24.997
26392,3.656,0.000,0.436,1.709,1.828,6.107,0.000,25.008
26630,3.657,0.000,0.436,1.709,1.828,6.107,0.000,25.007
26864,3.361,-3.350,0.442,1.733,1.852,6.189,-0.001,25.108
27102,3.256,-3.350,0.442,1.955,1.852,6.919,0.000,27.001
27339,3.568,0.000,0.442,2.052,1.852,7.236,0.000,27.153
27577,3.584,0.000,0.442,2.052,1.852,7.236,0.000,26.218
27815,3.589,0.000,0.442,2.052,1.852,7.236,0.000,25.719
28053,3.590,0.000,0.442,2.052,1.852,7.236,0.000,25.455
28291,3.591,0.000,0.442,2.052,1.852,7.236,0.000,25.240
28529,3.591,0.000,0.442,2.052,1.852,7.236,0.000,25.175
28767,3.592,0.000,0.442,2.052,1.852,7.236,0.000,25.094
29005,3.592,0.000,0.442,2.052,1.852,7.236,0.000,24.980
29243,3.593,0.000,0.442,2.052,1.852,7.236,0.000,24.962
29481,3.593,0.000,0.442,2.052,1.852,7.236,0.000,25.054
29719,3.593,0.000,0.442,2.052,1.852,7.236,0.000,25.015
29957,3.593,0.000,0.442,2.052,1.852,7.236,0.000,24.962
30195,3.593,0.000,0.442,2.052,1.852,7.236,0.000,24.982
30433,3.593,0.000,0.442,2.052,1.852,7.236,0.000,25.022
30671,3.594,0.000,0.442,2.052,1.852,7.236,0.000,25.018
30905,3.595,0.000,0.448,2.061,1.875,7.264,0.000,25.091
31142,3.177,-3.350,0.449,2.280,1.875,7.970,0.000,27.179
31379,3.478,0.000,0.449,2.396,1.875,8.338,0.000,27.772
31617,3.514,0.000,0.449,2.396,1.875,8.338,0.000,26.539
31855,3.523,0.000,0.449,2.396,1.875,8.338,0.000,25.836
32093,3.528,0.000,0.449,2.396,1.875,8.338,0.000,25.488
32331,3.531,0.000,0.449,2.396,1.875,8.338,0.000,25.272
32569,3.533,0.000,0.449,2.396,1.875,8.338,0.000,25.148
32807,3.534,0.000,0.449,2.396,1.875,8.338,0.000,25.051
33045,3.535,0.000,0.449,2.396,1.875,8.338,0.000,25.085
33283,3.536,0.000,0.449,2.396,1.875,8.338,0.000,24.974
33521,3.536,0.000,0.449,2.396,1.875,8.338,0.000,25.000
33759,3.537,0.000,0.449,2.396,1.875,8.338,0.000,24.978
33997,3.537,0.000,0.449,2.396,1.875,8.338,0.000,24.971
34235,3.537,0.000,0.449,2.396,1.875,8.338,0.000,24.962
34473,3.537,0.000,0.449,2.396,1.875,8.338,0.000,24.973
34711,3.538,0.000,0.449,2.396,1.875,8.338,0.000,24.954
34945,3.540,0.000,0.455,2.404,1.899,8.365,0.000,25.117
35182,3.087,-3.350,0.455,2.604,1.899,8.996,0.000,27.252
35419,3.388,0.000,0.455,2.739,1.899,9.407,0.000,28.319
35657,3.410,0.000,0.455,2.739,1.899,9.407,0.000,27.170
35895,3.425,0.000,0.455,2.739,1.899,9.407,0.000,26.245
36133,3.431,0.000,0.455,2.739,1.899,9.407,0.000,25.745
36371,3.435,0.000,0.455,2.739,1.899,9.407,0.000,25.495
36609,3.437,0.000,0.455,2.739,1.899,9.407,0.000,25.239
36847,3.438,0.000,0.455,2.739,1.899,9.407,0.000,25.157
37085,3.439,0.000,0.455,2.739,1.899,9.407,0.000,25.133
37323,3.440,0.000,0.455,2.739,1.899,9.407,0.000,25.016
37561,3.440,0.000,0.455,2.739,1.899,9.407,0.000,25.026
37799,3.441,0.000,0.455,2.739,1.899,9.407,0.000,25.071
38037,3.441,0.000,0.455,2.739,1.899,9.407,0.000,25.081
38275,3.441,0.000,0.455,2.739,1.899,9.407,0.000,25.103
38513,3.442,0.000,0.455,2.739,1.899,9.407,0.000,25.107
38751,3.442,0.000,0.455,2.739,1.899,9.407,0.000,25.034
38987,3.649,2.250,0.460,2.748,1.919,9.434,0.002,25.117
39223,2.850,-3.350,0.461,2.929,1.921,9.972,-0.001,27.969
39460,3.288,0.000,0.461,3.083,1.921,10.392,0.001,30.670
39698,3.318,0.000,0.461,3.083,1.921,10.392,0.000,28.385
39936,3.323,0.000,0.461,3.083,1.921,10.392,0.000,26.996
40174,3.325,0.000,0.461,3.083,1.921,10.392,0.000,26.267
40412,3.325,0.000,0.461,3.083,1.921,10.392,0.000,25.685
40650,3.326,0.000,0.461,3.083,1.921,10.392,0.000,25.430
40888,3.327,0.000,0.461,3.083,1.921,10.392,0.000,25.279
41126,3.328,0.000,0.461,3.083,1.921,10.392,0.000,25.147
41364,3.328,0.000,0.461,3.083,1.921,10.392,0.000,25.062
41602,3.328,0.000,0.461,3.083,1.921,10.392,0.000,25.077
41840,3.329,0.000,0.461,3.083,1.921,10.392,0.000,25.120
42078,3.329,0.000,0.461,3.083,1.921,10.392,0.000,25.059
42316,3.329,0.000,0.461,3.083,1.921,10.392,0.000,25.030
42554,3.330,0.000,0.461,3.083,1.921,10.392,0.000,24.995
42792,3.330,0.000,0.461,3.083,1.921,10.392,0.000,25.019
43028,3.309,0.000,0.461,3.091,1.921,10.415,0.001,25.218
43108,2.495,-3.350,0.467,3.110,1.944,10.465,-0.012,25.583