File: data/T05/HPPC/3.csv
time_s,voltage_v,current_a,chargecapacity_ah,dischargecapacity_ah,charge_energy_wh,discharge_energy_wh,voltagedot_v_per_s,temp_degc
1,4.023,0.000,0.000,0.000,0.000,0.000,0.000,10.204
238,4.023,0.000,0.000,0.000,0.000,0.000,0.000,10.170
475,4.023,0.000,0.000,0.000,0.000,0.000,0.000,10.134
712,4.023,0.000,0.000,0.000,0.000,0.000,0.000,10.150
949,4.022,0.000,0.000,0.000,0.000,0.000,0.000,10.192
1186,4.023,0.000,0.000,0.000,0.000,0.000,0.000,10.180
1423,4.023,0.000,0.000,0.000,0.000,0.000,0.000,10.179
1660,4.023,0.000,0.000,0.000,0.000,0.000,0.000,10.153
1897,4.023,0.000,0.000,0.000,0.000,0.000,0.000,10.173
2134,4.023,0.000,0.000,0.000,0.000,0.000,0.000,10.247
2371,4.023,0.000,0.000,0.000,0.000,0.000,0.000,10.223
2608,4.023,0.000,0.000,0.000,0.000,0.000,0.000,10.230
2845,4.023,0.000,0.000,0.000,0.000,0.000,0.000,10.222
3082,4.023,0.000,0.000,0.000,0.000,0.000,0.000,10.210
3319,4.023,0.000,0.000,0.000,0.000,0.000,0.000,10.114
3556,4.023,0.000,0.000,0.000,0.000,0.000,0.000,10.068
3791,4.200,1.262,0.079,0.000,0.330,0.000,0.000,10.491
4028,4.200,0.947,0.151,0.000,0.632,0.000,0.000,10.568
4265,4.200,0.731,0.205,0.000,0.862,0.000,0.000,10.391
4502,4.200,0.571,0.248,0.000,1.041,0.000,0.000,10.237
4739,4.200,0.450,0.281,0.000,1.181,0.000,0.000,10.023
4976,4.200,0.358,0.308,0.000,1.292,0.000,0.000,9.839
5213,4.200,0.288,0.329,0.000,1.382,0.000,0.000,9.696
5450,4.200,0.236,0.346,0.000,1.454,0.000,0.000,9.589
5687,4.200,0.194,0.360,0.000,1.513,0.000,0.000,9.509
5924,4.200,0.162,0.372,0.000,1.562,0.000,0.000,9.417
6161,4.200,0.137,0.382,0.000,1.603,0.000,0.000,9.375
6398,4.200,0.116,0.390,0.000,1.638,0.000,0.000,9.386
6635,4.200,0.100,0.397,0.000,1.668,0.000,0.000,9.338
6872,4.200,0.087,0.403,0.000,1.694,0.000,0.000,9.248
7109,4.200,0.076,0.409,0.000,1.716,0.000,0.000,9.270
7346,4.200,0.067,0.413,0.000,1.736,0.000,0.000,9.287
7583,4.183,0.000,0.414,0.000,1.738,0.000,0.000,9.302
7820,4.180,0.000,0.414,0.000,1.738,0.000,0.000,9.260
8057,4.178,0.000,0.414,0.000,1.738,0.000,0.000,9.251
8294,4.176,0.000,0.414,0.000,1.738,0.000,0.000,9.213
8531,4.175,0.000,0.414,0.000,1.738,0.000,0.000,9.257
8768,4.174,0.000,0.414,0.000,1.738,0.000,0.000,9.401
9005,4.174,0.000,0.414,0.000,1.738,0.000,0.000,9.579
9242,4.173,0.000,0.414,0.000,1.738,0.000,0.000,9.729
9479,4.172,0.000,0.414,0.000,1.738,0.000,0.000,9.734
9716,4.172,0.000,0.414,0.000,1.738,0.000,0.000,9.677
9953,4.171,0.000,0.414,0.000,1.738,0.000,0.000,9.628
10190,4.171,0.000,0.414,0.000,1.738,0.000,0.000,9.536
10427,4.171,0.000,0.414,0.000,1.738,0.000,0.000,9.519
10664,4.170,0.000,0.414,0.000,1.738,0.000,0.000,9.403
10901,4.170,0.000,0.414,0.000,1.738,0.000,0.000,9.381
11137,3.710,-3.350,0.414,0.150,1.738,0.560,0.000,11.319
11374,3.959,0.000,0.414,0.335,1.738,1.245,0.001,12.408
11611,4.019,0.000,0.414,0.335,1.738,1.245,0.000,10.833
11848,4.034,0.000,0.414,0.335,1.738,1.245,0.000,9.970
12085,4.039,0.000,0.414,0.335,1.738,1.245,0.000,9.606
12322,4.041,0.000,0.414,0.335,1.738,1.245,0.000,9.440
12559,4.043,0.000,0.414,0.335,1.738,1.245,0.000,9.336
12796,4.044,0.000,0.414,0.335,1.738,1.245,0.000,9.290
13033,4.045,0.000,0.414,0.335,1.738,1.245,0.000,9.266
13270,4.046,0.000,0.414,0.335,1.738,1.245,0.000,9.299
13507,4.046,0.000,0.414,0.335,1.738,1.245,0.000,9.239
13744,4.047,0.000,0.414,0.335,1.738,1.245,0.000,9.275
13981,4.047,0.000,0.414,0.335,1.738,1.245,0.000,9.270
14218,4.047,0.000,0.414,0.335,1.738,1.245,0.000,9.286
14455,4.047,0.000,0.414,0.335,1.738,1.245,0.000,9.290
14692,4.048,0.000,0.414,0.335,1.738,1.245,0.000,9.341
14929,4.048,0.000,0.414,0.335,1.738,1.245,0.000,9.348
15161,3.652,-3.350,0.420,0.459,1.765,1.702,0.000,10.613
15397,3.586,-3.350,0.420,0.679,1.765,2.497,0.000,12.178
15634,3.901,0.000,0.420,0.679,1.765,2.497,0.000,10.862
15871,3.909,0.000,0.420,0.679,1.765,2.497,0.000,10.212
16108,3.914,0.000,0.420,0.679,1.765,2.497,0.000,9.833
16345,3.918,0.000,0.420,0.679,1.765,2.497,0.000,9.723
16582,3.922,0.000,0.420,0.679,1.765,2.497,0.000,9.613
16819,3.927,0.000,0.420,0.679,1.765,2.497,0.000,9.634
17056,3.930,0.000,0.420,0.679,1.765,2.497,0.000,9.569
17293,3.932,0.000,0.420,0.679,1.765,2.497,0.000,9.568
17530,3.933,0.000,0.420,0.679,1.765,2.497,0.000,9.590
17767,3.933,0.000,0.420,0.679,1.765,2.497,0.000,9.607
18004,3.934,0.000,0.420,0.679,1.765,2.497,0.000,9.667
18241,3.934,0.000,0.420,0.679,1.765,2.497,0.000,9.638
18478,3.934,0.000,0.420,0.679,1.765,2.497,0.000,9.695
18715,3.934,0.000,0.420,0.679,1.765,2.497,0.000,9.691
18952,3.934,0.000,0.420,0.679,1.765,2.497,0.000,9.688
19184,3.589,-3.350,0.426,0.768,1.790,2.821,0.000,10.528
19421,3.510,-3.350,0.426,0.988,1.790,3.603,0.000,12.275
19657,3.809,0.000,0.426,1.022,1.790,3.721,0.000,11.514
19894,3.820,0.000,0.426,1.022,1.790,3.721,0.000,10.973
20131,3.824,0.000,0.426,1.022,1.790,3.721,0.000,10.817
20368,3.826,0.000,0.426,1.022,1.790,3.721,0.000,10.701
20605,3.828,0.000,0.426,1.022,1.790,3.721,0.000,10.597
20842,3.830,0.000,0.426,1.022,1.790,3.721,0.000,10.568
21079,3.831,0.000,0.426,1.022,1.790,3.721,0.000,10.536
21316,3.833,0.000,0.426,1.022,1.790,3.721,0.000,10.442
21553,3.836,0.000,0.426,1.022,1.790,3.721,0.000,10.358
21790,3.839,0.000,0.426,1.022,1.790,3.721,0.000,10.341
22027,3.842,0.000,0.426,1.022,1.790,3.721,0.000,10.341
22264,3.845,0.000,0.426,1.022,1.790,3.721,0.000,10.301
22501,3.847,0.000,0.426,1.022,1.790,3.721,0.000,10.240
22738,3.849,0.000,0.426,1.022,1.790,3.721,0.000,10.279
22975,3.849,0.000,0.426,1.022,1.790,3.721,0.000,10.255
23208,3.531,-3.350,0.433,1.077,1.815,3.917,-0.001,10.707
23445,3.435,-3.350,0.433,1.297,1.815,4.684,0.000,12.384
23681,3.710,0.000,0.433,1.365,1.815,4.917,0.000,11.894
23918,3.725,0.000,0.433,1.365,1.815,4.917,0.000,11.054
24155,3.729,0.000,0.433,1.365,1.815,4.917,0.000,10.712
24392,3.731,0.000,0.433,1.365,1.815,4.917,0.000,10.476
24629,3.733,0.000,0.433,1.365,1.815,4.917,0.000,10.416
24866,3.734,0.000,0.433,1.365,1.815,4.917,0.000,10.313
25103,3.735,0.000,0.433,1.365,1.815,4.917,0.000,10.267
25340,3.736,0.000,0.433,1.365,1.815,4.917,0.000,10.250
25577,3.736,0.000,0.433,1.365,1.815,4.917,0.000,10.209
25814,3.737,0.000,0.433,1.365,1.815,4.917,0.000,10.165
26051,3.738,0.000,0.433,1.365,1.815,4.917,0.000,10.130
26288,3.738,0.000,0.433,1.365,1.815,4.917,0.000,10.183
26525,3.739,0.000,0.433,1.365,1.815,4.917,0.000,10.128
26762,3.740,0.000,0.433,1.365,1.815,4.917,0.000,10.047
26999,3.741,0.000,0.433,1.365,1.815,4.917,0.000,10.086
27231,3.476,-3.350,0.439,1.386,1.840,4.988,-0.002,10.166
27468,3.349,-3.350,0.439,1.606,1.840,5.737,0.000,11.938
27704,3.616,0.000,0.439,1.709,1.840,6.079,0.000,11.846
27941,3.635,0.000,0.439,1.709,1.840,6.079,0.000,10.801
28178,3.641,0.000,0.439,1.709,1.840,6.079,0.000,10.362
28415,3.644,0.000,0.439,1.709,1.840,6.079,0.000,10.101
28652,3.645,0.000,0.439,1.709,1.840,6.079,0.000,9.994
28889,3.646,0.000,0.439,1.709,1.840,6.079,0.000,9.903
29126,3.647,0.000,0.439,1.709,1.840,6.079,0.000,9.840
29363,3.647,0.000,0.439,1.709,1.840,6.079,0.000,9.793
29600,3.648,0.000,0.439,1.709,1.840,6.079,0.000,9.779
29837,3.648,0.000,0.439,1.709,1.840,6.079,0.000,9.741
30074,3.648,0.000,0.439,1.709,1.840,6.079,0.000,9.695
30311,3.649,0.000,0.439,1.709,1.840,6.079,0.000,9.704
30548,3.649,0.000,0.439,1.709,1.840,6.079,0.000,9.808
30785,3.649,0.000,0.439,1.709,1.840,6.079,0.000,9.931
31022,3.650,0.000,0.439,1.709,1.840,6.079,0.000,10.084
31255,3.653,0.000,0.445,1.717,1.863,6.107,0.000,10.195
31491,3.258,-3.350,0.445,1.915,1.863,6.763,0.000,12.024
31727,3.520,0.000,0.445,2.052,1.863,7.206,0.000,12.462
31964,3.561,0.000,0.445,2.052,1.863,7.206,0.000,11.133
32201,3.572,0.000,0.445,2.052,1.863,7.206,0.000,10.488
32438,3.577,0.000,0.445,2.052,1.863,7.206,0.000,10.086
32675,3.579,0.000,0.445,2.052,1.863,7.206,0.000,9.847
32912,3.581,0.000,0.445,2.052,1.863,7.206,0.000,9.745
33149,3.583,0.000,0.445,2.052,1.863,7.206,0.000,9.558
33386,3.584,0.000,0.445,2.052,1.863,7.206,0.000,9.544
33623,3.584,0.000,0.445,2.052,1.863,7.206,0.000,9.481
33860,3.585,0.000,0.445,2.052,1.863,7.206,0.000,9.381
34097,3.585,0.000,0.445,2.052,1.863,7.206,0.000,9.335
34334,3.585,0.000,0.445,2.052,1.863,7.206,0.000,9.278
34571,3.586,0.000,0.445,2.052,1.863,7.206,0.000,9.216
34808,3.586,0.000,0.445,2.052,1.863,7.206,0.000,9.200
35045,3.586,0.000,0.445,2.052,1.863,7.206,0.000,9.182
35281,3.574,0.000,0.445,2.061,1.863,7.234,0.000,9.233
35515,3.161,-3.350,0.451,2.224,1.887,7.762,-0.001,11.057
35751,3.424,0.000,0.451,2.396,1.887,8.294,0.001,12.494
35988,3.466,0.000,0.451,2.396,1.887,8.294,0.000,10.649
36225,3.488,0.000,0.451,2.396,1.887,8.294,0.000,9.746
36462,3.500,0.000,0.451,2.396,1.887,8.294,0.000,9.319
36699,3.508,0.000,0.451,2.396,1.887,8.294,0.000,9.050
36936,3.512,0.000,0.451,2.396,1.887,8.294,0.000,8.878
37173,3.515,0.000,0.451,2.396,1.887,8.294,0.000,8.880
37410,3.517,0.000,0.451,2.396,1.887,8.294,0.000,8.786
37647,3.519,0.000,0.451,2.396,1.887,8.294,0.000,8.733
37884,3.520,0.000,0.451,2.396,1.887,8.294,0.000,8.690
38121,3.521,0.000,0.451,2.396,1.887,8.294,0.000,8.658
38358,3.522,0.000,0.451,2.396,1.887,8.294,0.000,8.623
38595,3.523,0.000,0.451,2.396,1.887,8.294,0.000,8.608
38832,3.524,0.000,0.451,2.396,1.887,8.294,0.000,8.583
39069,3.525,0.000,0.451,2.396,1.887,8.294,0.000,8.464
39305,3.242,-3.000,0.451,2.401,1.887,8.310,-0.004,8.551
39538,3.009,-3.350,0.458,2.533,1.910,8.722,-0.001,10.559
39774,3.266,0.000,0.458,2.739,1.910,9.310,0.003,14.106
40011,3.377,0.000,0.458,2.739,1.910,9.310,0.000,11.109
40248,3.384,0.000,0.458,2.739,1.910,9.310,0.000,9.719
40485,3.391,0.000,0.458,2.739,1.910,9.310,0.000,9.063
40722,3.398,0.000,0.458,2.739,1.910,9.310,0.000,8.667
40959,3.403,0.000,0.458,2.739,1.910,9.310,0.000,8.415
41196,3.407,0.000,0.458,2.739,1.910,9.310,0.000,8.316
41433,3.410,0.000,0.458,2.739,1.910,9.310,0.000,8.366
41670,3.413,0.000,0.458,2.739,1.910,9.310,0.000,8.505
41907,3.414,0.000,0.458,2.739,1.910,9.310,0.000,8.642
42144,3.416,0.000,0.458,2.739,1.910,9.310,0.000,8.724
42381,3.417,0.000,0.458,2.739,1.910,9.310,0.000,8.717
42618,3.418,0.000,0.458,2.739,1.910,9.310,0.000,8.659
42855,3.418,0.000,0.458,2.739,1.910,9.310,0.000,8.692
43092,3.419,0.000,0.458,2.739,1.910,9.310,0.000,8.599
43329,3.420,0.000,0.458,2.739,1.910,9.310,0.000,8.646
43501,2.492,-3.350,0.464,2.787,1.933,9.439,-0.008,9.763