File: data/T05/HPPC/5.csv
time_s,voltage_v,current_a,chargecapacity_ah,dischargecapacity_ah,charge_energy_wh,discharge_energy_wh,voltagedot_v_per_s,temp_degc
1,4.024,0.000,0.000,0.000,0.000,0.000,0.000,9.951
236,4.024,0.000,0.000,0.000,0.000,0.000,0.000,9.934
471,4.024,0.000,0.000,0.000,0.000,0.000,0.000,9.921
706,4.024,0.000,0.000,0.000,0.000,0.000,0.000,9.950
941,4.024,0.000,0.000,0.000,0.000,0.000,0.000,9.940
1176,4.024,0.000,0.000,0.000,0.000,0.000,0.000,9.934
1411,4.024,0.000,0.000,0.000,0.000,0.000,0.000,9.947
1646,4.024,0.000,0.000,0.000,0.000,0.000,0.000,9.914
1881,4.024,0.000,0.000,0.000,0.000,0.000,0.000,9.913
2116,4.024,0.000,0.000,0.000,0.000,0.000,0.000,9.968
2351,4.024,0.000,0.000,0.000,0.000,0.000,0.000,9.987
2586,4.024,0.000,0.000,0.000,0.000,0.000,0.000,10.036
2821,4.024,0.000,0.000,0.000,0.000,0.000,0.000,10.041
3056,4.024,0.000,0.000,0.000,0.000,0.000,0.000,9.965
3291,4.024,0.000,0.000,0.000,0.000,0.000,0.000,9.916
3526,4.024,0.000,0.000,0.000,0.000,0.000,0.000,9.883
3760,4.200,1.382,0.069,0.000,0.289,0.000,0.000,10.376
3995,4.200,1.033,0.147,0.000,0.615,0.000,0.000,10.723
4230,4.200,0.795,0.206,0.000,0.864,0.000,0.000,10.678
4465,4.200,0.612,0.252,0.000,1.056,0.000,0.000,10.569
4700,4.200,0.471,0.287,0.000,1.203,0.000,0.000,10.331
4935,4.200,0.366,0.314,0.000,1.317,0.000,0.000,10.085
5170,4.200,0.288,0.335,0.000,1.407,0.000,0.000,9.861
5405,4.200,0.229,0.352,0.000,1.477,0.000,0.000,9.680
5640,4.200,0.186,0.365,0.000,1.534,0.000,0.000,9.523
5875,4.200,0.152,0.376,0.000,1.580,0.000,0.000,9.388
6110,4.200,0.127,0.385,0.000,1.618,0.000,0.000,9.292
6345,4.200,0.107,0.393,0.000,1.650,0.000,0.000,9.229
6580,4.200,0.091,0.399,0.000,1.677,0.000,0.000,9.131
6815,4.200,0.078,0.405,0.000,1.700,0.000,0.000,9.105
7050,4.200,0.068,0.410,0.000,1.720,0.000,0.000,9.085
7284,4.185,0.000,0.411,0.000,1.725,0.000,0.000,9.058
7519,4.182,0.000,0.411,0.000,1.725,0.000,0.000,9.031
7754,4.180,0.000,0.411,0.000,1.725,0.000,0.000,9.034
7989,4.178,0.000,0.411,0.000,1.725,0.000,0.000,9.006
8224,4.177,0.000,0.411,0.000,1.725,0.000,0.000,8.991
8459,4.176,0.000,0.411,0.000,1.725,0.000,0.000,8.994
8694,4.175,0.000,0.411,0.000,1.725,0.000,0.000,9.103
8929,4.175,0.000,0.411,0.000,1.725,0.000,0.000,9.225
9164,4.174,0.000,0.411,0.000,1.725,0.000,0.000,9.399
9399,4.174,0.000,0.411,0.000,1.725,0.000,0.000,9.430
9634,4.173,0.000,0.411,0.000,1.725,0.000,0.000,9.396
9869,4.173,0.000,0.411,0.000,1.725,0.000,0.000,9.373
10104,4.172,0.000,0.411,0.000,1.725,0.000,0.000,9.333
10339,4.172,0.000,0.411,0.000,1.725,0.000,0.000,9.283
10574,4.172,0.000,0.411,0.000,1.725,0.000,0.000,9.179
10808,3.744,-3.350,0.411,0.089,1.725,0.337,0.000,10.498
11043,3.712,-3.350,0.411,0.308,1.725,1.152,0.000,13.408
11277,4.018,0.000,0.411,0.335,1.725,1.252,0.000,12.688
11512,4.035,0.000,0.411,0.335,1.725,1.252,0.000,11.420
11747,4.041,0.000,0.411,0.335,1.725,1.252,0.000,10.579
11982,4.043,0.000,0.411,0.335,1.725,1.252,0.000,10.045
12217,4.044,0.000,0.411,0.335,1.725,1.252,0.000,9.681
12452,4.045,0.000,0.411,0.335,1.725,1.252,0.000,9.450
12687,4.045,0.000,0.411,0.335,1.725,1.252,0.000,9.309
12922,4.046,0.000,0.411,0.335,1.725,1.252,0.000,9.160
13157,4.046,0.000,0.411,0.335,1.725,1.252,0.000,9.135
13392,4.047,0.000,0.411,0.335,1.725,1.252,0.000,9.084
13627,4.047,0.000,0.411,0.335,1.725,1.252,0.000,9.074
13862,4.047,0.000,0.411,0.335,1.725,1.252,0.000,9.044
14097,4.047,0.000,0.411,0.335,1.725,1.252,0.000,9.007
14332,4.047,0.000,0.411,0.335,1.725,1.252,0.000,9.082
14567,4.048,0.000,0.411,0.335,1.725,1.252,0.000,9.057
14797,3.725,-3.350,0.417,0.367,1.751,1.371,-0.001,9.405
15032,3.626,-3.350,0.417,0.585,1.751,2.172,0.000,12.273
15266,3.892,0.000,0.417,0.679,1.751,2.509,0.000,12.741
15501,3.907,0.000,0.417,0.679,1.751,2.509,0.000,11.609
15736,3.912,0.000,0.417,0.679,1.751,2.509,0.000,10.839
15971,3.916,0.000,0.417,0.679,1.751,2.509,0.000,10.341
16206,3.920,0.000,0.417,0.679,1.751,2.509,0.000,10.075
16441,3.924,0.000,0.417,0.679,1.751,2.509,0.000,9.761
16676,3.928,0.000,0.417,0.679,1.751,2.509,0.000,9.599
16911,3.931,0.000,0.417,0.679,1.751,2.509,0.000,9.529
17146,3.932,0.000,0.417,0.679,1.751,2.509,0.000,9.414
17381,3.932,0.000,0.417,0.679,1.751,2.509,0.000,9.398
17616,3.933,0.000,0.417,0.679,1.751,2.509,0.000,9.328
17851,3.933,0.000,0.417,0.679,1.751,2.509,0.000,9.374
18086,3.933,0.000,0.417,0.679,1.751,2.509,0.000,9.427
18321,3.933,0.000,0.417,0.679,1.751,2.509,0.000,9.390
18556,3.934,0.000,0.417,0.679,1.751,2.509,0.000,9.402
18789,4.092,2.250,0.421,0.687,1.766,2.540,0.002,9.547
19022,3.559,-3.350,0.423,0.863,1.777,3.173,0.000,11.586
19256,3.780,0.000,0.423,1.022,1.777,3.735,0.001,13.252
19491,3.815,0.000,0.423,1.022,1.777,3.735,0.000,12.134
19726,3.821,0.000,0.423,1.022,1.777,3.735,0.000,11.431
19961,3.823,0.000,0.423,1.022,1.777,3.735,0.000,11.183
20196,3.825,0.000,0.423,1.022,1.777,3.735,0.000,10.981
20431,3.827,0.000,0.423,1.022,1.777,3.735,0.000,10.789
20666,3.829,0.000,0.423,1.022,1.777,3.735,0.000,10.608
20901,3.830,0.000,0.423,1.022,1.777,3.735,0.000,10.494
21136,3.832,0.000,0.423,1.022,1.777,3.735,0.000,10.344
21371,3.835,0.000,0.423,1.022,1.777,3.735,0.000,10.293
21606,3.838,0.000,0.423,1.022,1.777,3.735,0.000,10.209
21841,3.841,0.000,0.423,1.022,1.777,3.735,0.000,10.108
22076,3.844,0.000,0.423,1.022,1.777,3.735,0.000,10.130
22311,3.846,0.000,0.423,1.022,1.777,3.735,0.000,10.068
22546,3.847,0.000,0.423,1.022,1.777,3.735,0.000,10.043
22781,3.848,0.000,0.423,1.022,1.777,3.735,0.000,10.005
23011,3.499,-3.350,0.430,1.140,1.802,4.154,0.000,11.307
23246,3.418,-3.350,0.430,1.359,1.802,4.910,0.000,13.576
23480,3.715,0.000,0.430,1.365,1.802,4.932,0.000,12.745
23715,3.724,0.000,0.430,1.365,1.802,4.932,0.000,11.828
23950,3.727,0.000,0.430,1.365,1.802,4.932,0.000,11.236
24185,3.729,0.000,0.430,1.365,1.802,4.932,0.000,10.822
24420,3.730,0.000,0.430,1.365,1.802,4.932,0.000,10.544
24655,3.731,0.000,0.430,1.365,1.802,4.932,0.000,10.385
24890,3.732,0.000,0.430,1.365,1.802,4.932,0.000,10.253
25125,3.733,0.000,0.430,1.365,1.802,4.932,0.000,10.164
25360,3.733,0.000,0.430,1.365,1.802,4.932,0.000,10.115
25595,3.734,0.000,0.430,1.365,1.802,4.932,0.000,10.040
25830,3.734,0.000,0.430,1.365,1.802,4.932,0.000,9.962
26065,3.735,0.000,0.430,1.365,1.802,4.932,0.000,9.923
26300,3.735,0.000,0.430,1.365,1.802,4.932,0.000,9.892
26535,3.736,0.000,0.430,1.365,1.802,4.932,0.000,9.910
26770,3.737,0.000,0.430,1.365,1.802,4.932,0.000,9.807
27000,3.433,-3.350,0.436,1.417,1.826,5.113,-0.001,10.263
27235,3.339,-3.350,0.436,1.636,1.826,5.852,0.000,12.737
27470,3.619,0.000,0.436,1.709,1.826,6.094,0.000,12.864
27705,3.633,0.000,0.436,1.709,1.826,6.094,0.000,11.803
27940,3.638,0.000,0.436,1.709,1.826,6.094,0.000,11.004
28175,3.640,0.000,0.436,1.709,1.826,6.094,0.000,10.510
28410,3.641,0.000,0.436,1.709,1.826,6.094,0.000,10.158
28645,3.642,0.000,0.436,1.709,1.826,6.094,0.000,9.984
28880,3.642,0.000,0.436,1.709,1.826,6.094,0.000,9.842
29115,3.643,0.000,0.436,1.709,1.826,6.094,0.000,9.691
29350,3.643,0.000,0.436,1.709,1.826,6.094,0.000,9.595
29585,3.643,0.000,0.436,1.709,1.826,6.094,0.000,9.531
29820,3.643,0.000,0.436,1.709,1.826,6.094,0.000,9.477
30055,3.644,0.000,0.436,1.709,1.826,6.094,0.000,9.394
30290,3.644,0.000,0.436,1.709,1.826,6.094,0.000,9.366
30525,3.644,0.000,0.436,1.709,1.826,6.094,0.000,9.510
30760,3.644,0.000,0.436,1.709,1.826,6.094,0.000,9.611
30992,3.647,0.000,0.442,1.717,1.850,6.122,0.000,9.863
31226,3.255,-3.350,0.442,1.914,1.850,6.774,0.000,12.477
31460,3.516,0.000,0.442,2.052,1.850,7.220,0.000,13.894
31695,3.558,0.000,0.442,2.052,1.850,7.220,0.000,12.452
31930,3.569,0.000,0.442,2.052,1.850,7.220,0.000,11.442
32165,3.573,0.000,0.442,2.052,1.850,7.220,0.000,10.783
32400,3.576,0.000,0.442,2.052,1.850,7.220,0.000,10.284
32635,3.578,0.000,0.442,2.052,1.850,7.220,0.000,9.942
32870,3.579,0.000,0.442,2.052,1.850,7.220,0.000,9.672
33105,3.580,0.000,0.442,2.052,1.850,7.220,0.000,9.460
33340,3.581,0.000,0.442,2.052,1.850,7.220,0.000,9.368
33575,3.581,0.000,0.442,2.052,1.850,7.220,0.000,9.263
33810,3.581,0.000,0.442,2.052,1.850,7.220,0.000,9.214
34045,3.582,0.000,0.442,2.052,1.850,7.220,0.000,9.127
34280,3.582,0.000,0.442,2.052,1.850,7.220,0.000,9.068
34515,3.582,0.000,0.442,2.052,1.850,7.220,0.000,8.936
34750,3.582,0.000,0.442,2.052,1.850,7.220,0.000,8.913
34984,3.338,-3.000,0.442,2.061,1.850,7.248,-0.002,8.930
35215,3.183,-3.350,0.448,2.192,1.873,7.673,-0.001,10.885
35449,3.384,0.000,0.448,2.396,1.873,8.312,0.002,14.037
35684,3.460,0.000,0.448,2.396,1.873,8.312,0.000,12.429
35919,3.484,0.000,0.448,2.396,1.873,8.312,0.000,11.142
36154,3.497,0.000,0.448,2.396,1.873,8.312,0.000,10.282
36389,3.504,0.000,0.448,2.396,1.873,8.312,0.000,9.647
36624,3.509,0.000,0.448,2.396,1.873,8.312,0.000,9.236
36859,3.511,0.000,0.448,2.396,1.873,8.312,0.000,8.987
37094,3.513,0.000,0.448,2.396,1.873,8.312,0.000,8.799
37329,3.515,0.000,0.448,2.396,1.873,8.312,0.000,8.649
37564,3.516,0.000,0.448,2.396,1.873,8.312,0.000,8.614
37799,3.517,0.000,0.448,2.396,1.873,8.312,0.000,8.474
38034,3.518,0.000,0.448,2.396,1.873,8.312,0.000,8.392
38269,3.519,0.000,0.448,2.396,1.873,8.312,0.000,8.369
38504,3.520,0.000,0.448,2.396,1.873,8.312,0.000,8.283
38739,3.521,0.000,0.448,2.396,1.873,8.312,0.000,8.267
38974,3.521,0.000,0.448,2.396,1.873,8.312,0.000,8.265
39205,3.098,-3.350,0.455,2.469,1.896,8.544,-0.001,9.343
39440,2.854,-3.350,0.455,2.688,1.896,9.197,-0.001,13.944
39674,3.373,0.000,0.455,2.739,1.896,9.341,0.000,13.805
39909,3.382,0.000,0.455,2.739,1.896,9.341,0.000,11.919
40144,3.389,0.000,0.455,2.739,1.896,9.341,0.000,10.621
40379,3.397,0.000,0.455,2.739,1.896,9.341,0.000,9.803
40614,3.402,0.000,0.455,2.739,1.896,9.341,0.000,9.185
40849,3.406,0.000,0.455,2.739,1.896,9.341,0.000,8.726
41084,3.409,0.000,0.455,2.739,1.896,9.341,0.000,8.480
41319,3.411,0.000,0.455,2.739,1.896,9.341,0.000,8.384
41554,3.412,0.000,0.455,2.739,1.896,9.341,0.000,8.337
41789,3.413,0.000,0.455,2.739,1.896,9.341,0.000,8.385
42024,3.414,0.000,0.455,2.739,1.896,9.341,0.000,8.501
42259,3.415,0.000,0.455,2.739,1.896,9.341,0.000,8.474
42494,3.416,0.000,0.455,2.739,1.896,9.341,0.000,8.462
42729,3.417,0.000,0.455,2.739,1.896,9.341,0.000,8.466
42964,3.417,0.000,0.455,2.739,1.896,9.341,0.000,8.397
43195,3.419,0.000,0.461,2.747,1.919,9.365,0.000,8.629
43244,2.492,-3.350,0.461,2.793,1.919,9.488,-0.006,9.771