File: data/T25/5C/1.csv
time_s,voltage_v,current_a,chargecapacity_ah,dischargecapacity_ah,charge_energy_wh,discharge_energy_wh,voltagedot_v_per_s,temp_degc
1,3.556,0.000,0.000,0.000,0.000,0.000,0.000,24.490
82,3.663,1.625,0.010,0.000,0.036,0.000,0.001,24.528
164,3.682,1.625,0.047,0.000,0.172,0.000,0.000,24.651
246,3.691,1.625,0.084,0.000,0.309,0.000,0.000,24.801
328,3.698,1.625,0.121,0.000,0.446,0.000,0.000,24.979
410,3.705,1.625,0.158,0.000,0.583,0.000,0.000,25.092
492,3.713,1.625,0.195,0.000,0.720,0.000,0.000,25.211
574,3.721,1.625,0.232,0.000,0.858,0.000,0.000,25.288
656,3.729,1.625,0.269,0.000,0.995,0.000,0.000,25.383
738,3.737,1.625,0.306,0.000,1.134,0.000,0.000,25.478
820,3.745,1.625,0.343,0.000,1.272,0.000,0.000,25.531
902,3.754,1.625,0.380,0.000,1.411,0.000,0.000,25.591
984,3.762,1.625,0.417,0.000,1.550,0.000,0.000,25.664
1066,3.770,1.625,0.454,0.000,1.690,0.000,0.000,25.666
1148,3.778,1.625,0.491,0.000,1.829,0.000,0.000,25.758
1230,3.787,1.625,0.528,0.000,1.969,0.000,0.000,25.756
1312,3.795,1.625,0.565,0.000,2.110,0.000,0.000,25.801
1394,3.804,1.625,0.602,0.000,2.250,0.000,0.000,25.756
1476,3.813,1.625,0.639,0.000,2.391,0.000,0.000,25.777
1558,3.822,1.625,0.676,0.000,2.533,0.000,0.000,25.786
1640,3.832,1.625,0.713,0.000,2.674,0.000,0.000,25.796
1722,3.842,1.625,0.750,0.000,2.816,0.000,0.000,25.812
1804,3.852,1.625,0.787,0.000,2.959,0.000,0.000,25.770
1886,3.863,1.625,0.824,0.000,3.102,0.000,0.000,25.775
1968,3.874,1.625,0.861,0.000,3.245,0.000,0.000,25.797
2050,3.885,1.625,0.898,0.000,3.389,0.000,0.000,25.748
2132,3.897,1.625,0.936,0.000,3.533,0.000,0.000,25.767
2214,3.908,1.625,0.973,0.000,3.677,0.000,0.000,25.707
2296,3.920,1.625,1.010,0.000,3.822,0.000,0.000,25.709
2378,3.931,1.625,1.047,0.000,3.967,0.000,0.000,25.688
2460,3.942,1.625,1.084,0.000,4.113,0.000,0.000,25.669
2542,3.954,1.625,1.121,0.000,4.259,0.000,0.000,25.641
2624,3.965,1.625,1.158,0.000,4.406,0.000,0.000,25.616
2706,3.976,1.625,1.195,0.000,4.553,0.000,0.000,25.589
2788,3.987,1.625,1.232,0.000,4.700,0.000,0.000,25.621
2870,3.998,1.625,1.269,0.000,4.848,0.000,0.000,25.622
2952,4.009,1.625,1.306,0.000,4.996,0.000,0.000,25.626
3034,4.020,1.625,1.343,0.000,5.145,0.000,0.000,25.619
3116,4.031,1.625,1.380,0.000,5.294,0.000,0.000,25.645
3198,4.042,1.625,1.417,0.000,5.443,0.000,0.000,25.600
3280,4.054,1.625,1.454,0.000,5.593,0.000,0.000,25.683
3362,4.066,1.625,1.491,0.000,5.744,0.000,0.000,25.690
3444,4.077,1.625,1.528,0.000,5.894,0.000,0.000,25.848
3526,4.090,1.625,1.565,0.000,6.046,0.000,0.000,25.782
3608,4.103,1.625,1.602,0.000,6.197,0.000,0.000,25.986
3690,4.116,1.625,1.639,0.000,6.349,0.000,0.000,26.414
3772,4.130,1.625,1.676,0.000,6.502,0.000,0.000,25.995
3854,4.145,1.625,1.713,0.000,6.655,0.000,0.000,25.855
3936,4.160,1.625,1.750,0.000,6.809,0.000,0.000,25.885
4018,4.176,1.625,1.787,0.000,6.963,0.000,0.000,25.970
4100,4.192,1.625,1.824,0.000,7.118,0.000,0.000,25.964
4182,4.200,1.524,1.860,0.000,7.270,0.000,0.000,25.959
4264,4.200,1.377,1.893,0.000,7.408,0.000,0.000,25.919
4346,4.200,1.263,1.923,0.000,7.535,0.000,0.000,25.920
4428,4.200,1.163,1.951,0.000,7.650,0.000,0.000,25.819
4510,4.200,1.076,1.976,0.000,7.757,0.000,0.000,25.708
4592,4.200,1.001,2.000,0.000,7.857,0.000,0.000,25.580
4674,4.200,0.935,2.022,0.000,7.949,0.000,0.000,25.579
4756,4.200,0.874,2.043,0.000,8.036,0.000,0.000,25.437
4838,4.200,0.821,2.062,0.000,8.117,0.000,0.000,25.350
4920,4.200,0.773,2.080,0.000,8.193,0.000,0.000,25.298
5002,4.200,0.726,2.097,0.000,8.265,0.000,0.000,25.239
5084,4.200,0.684,2.113,0.000,8.332,0.000,0.000,25.209
5166,4.200,0.643,2.128,0.000,8.395,0.000,0.000,25.131
5248,4.200,0.604,2.142,0.000,8.455,0.000,0.000,25.096
5330,4.200,0.569,2.156,0.000,8.511,0.000,0.000,25.021
5412,4.200,0.534,2.168,0.000,8.564,0.000,0.000,24.954
5494,4.200,0.500,2.180,0.000,8.613,0.000,0.000,24.938
5576,4.200,0.468,2.191,0.000,8.660,0.000,0.000,24.923
5658,4.200,0.438,2.201,0.000,8.703,0.000,0.000,24.853
5740,4.200,0.409,2.211,0.000,8.743,0.000,0.000,24.834
5822,4.200,0.381,2.220,0.000,8.781,0.000,0.000,24.804
5904,4.200,0.355,2.228,0.000,8.816,0.000,0.000,24.787
5986,4.200,0.331,2.236,0.000,8.849,0.000,0.000,24.741
6068,4.200,0.307,2.244,0.000,8.880,0.000,0.000,24.716
6150,4.200,0.285,2.250,0.000,8.908,0.000,0.000,24.672
6232,4.200,0.265,2.257,0.000,8.934,0.000,0.000,24.658
6314,4.200,0.246,2.262,0.000,8.959,0.000,0.000,24.660
6396,4.200,0.228,2.268,0.000,8.981,0.000,0.000,24.640
6478,4.200,0.211,2.273,0.000,9.002,0.000,0.000,24.635
6560,4.200,0.195,2.277,0.000,9.022,0.000,0.000,24.623
6642,4.200,0.182,2.282,0.000,9.040,0.000,0.000,24.612
6724,4.200,0.168,2.286,0.000,9.057,0.000,0.000,24.592
6806,4.200,0.156,2.289,0.000,9.072,0.000,0.000,24.561
6888,4.200,0.145,2.293,0.000,9.086,0.000,0.000,24.605
6970,4.200,0.134,2.296,0.000,9.100,0.000,0.000,24.549
7052,4.200,0.125,2.299,0.000,9.112,0.000,0.000,24.561
7134,4.200,0.116,2.302,0.000,9.124,0.000,0.000,24.516
7216,4.200,0.108,2.304,0.000,9.134,0.000,0.000,24.533
7298,4.200,0.100,2.307,0.000,9.144,0.000,0.000,24.474
7380,4.200,0.094,2.309,0.000,9.154,0.000,0.000,24.488
7462,4.200,0.088,2.311,0.000,9.162,0.000,0.000,24.549
7544,4.200,0.082,2.313,0.000,9.170,0.000,0.000,24.465
7626,4.200,0.076,2.315,0.000,9.178,0.000,0.000,24.475
7708,4.200,0.071,2.316,0.000,9.185,0.000,0.000,24.527
7790,4.200,0.068,2.318,0.000,9.192,0.000,0.000,24.455
7871,4.194,0.000,2.318,0.000,9.194,0.000,0.000,24.508
7953,4.192,0.000,2.318,0.000,9.194,0.000,0.000,24.491
8035,4.191,0.000,2.318,0.000,9.194,0.000,0.000,24.485
8117,4.190,0.000,2.318,0.000,9.194,0.000,0.000,24.473
8199,4.190,0.000,2.318,0.000,9.194,0.000,0.000,24.516
8281,4.189,0.000,2.318,0.000,9.194,0.000,0.000,24.462
8363,4.188,0.000,2.318,0.000,9.194,0.000,0.000,24.449
8445,4.188,0.000,2.318,0.000,9.194,0.000,0.000,24.471
8527,4.187,0.000,2.318,0.000,9.194,0.000,0.000,24.460
8609,4.187,0.000,2.318,0.000,9.194,0.000,0.000,24.473
8691,4.186,0.000,2.318,0.000,9.194,0.000,0.000,24.482
8773,4.186,0.000,2.318,0.000,9.194,0.000,0.000,24.490
8855,4.186,0.000,2.318,0.000,9.194,0.000,0.000,24.485
8937,4.185,0.000,2.318,0.000,9.194,0.000,0.000,24.491
9019,4.185,0.000,2.318,0.000,9.194,0.000,0.000,24.489
9101,4.185,0.000,2.318,0.000,9.194,0.000,0.000,24.471
9183,4.184,0.000,2.318,0.000,9.194,0.000,0.000,24.487
9265,4.184,0.000,2.318,0.000,9.194,0.000,0.000,24.470
9347,4.184,0.000,2.318,0.000,9.194,0.000,0.000,24.446
9429,4.183,0.000,2.318,0.000,9.194,0.000,0.000,24.466
9511,4.183,0.000,2.318,0.000,9.194,0.000,0.000,24.443
9593,4.183,0.000,2.318,0.000,9.194,0.000,0.000,24.469
9675,4.183,0.000,2.318,0.000,9.194,0.000,0.000,24.462
9757,4.183,0.000,2.318,0.000,9.194,0.000,0.000,24.484
9839,4.183,0.000,2.318,0.000,9.194,0.000,0.000,24.499
9921,4.182,0.000,2.318,0.000,9.194,0.000,0.000,24.488
10003,4.182,0.000,2.318,0.000,9.194,0.000,0.000,24.502
10085,4.182,0.000,2.318,0.000,9.194,0.000,0.000,24.475
10167,4.182,0.000,2.318,0.000,9.194,0.000,0.000,24.502
10249,4.182,0.000,2.318,0.000,9.194,0.000,0.000,24.451
10331,4.182,0.000,2.318,0.000,9.194,0.000,0.000,24.501
10413,4.182,0.000,2.318,0.000,9.194,0.000,0.000,24.454
10495,4.181,0.000,2.318,0.000,9.194,0.000,0.000,24.454
10577,4.181,0.000,2.318,0.000,9.194,0.000,0.000,24.509
10659,4.181,0.000,2.318,0.000,9.194,0.000,0.000,24.488
10741,4.181,0.000,2.318,0.000,9.194,0.000,0.000,24.485
10823,4.181,0.000,2.318,0.000,9.194,0.000,0.000,24.501
10905,4.180,0.000,2.318,0.000,9.194,0.000,0.000,24.483
10987,4.180,0.000,2.318,0.000,9.194,0.000,0.000,24.489
11069,4.180,0.000,2.318,0.000,9.194,0.000,0.000,24.455
11151,4.180,0.000,2.318,0.000,9.194,0.000,0.000,24.497
11233,4.180,0.000,2.318,0.000,9.194,0.000,0.000,24.507
11315,4.180,0.000,2.318,0.000,9.194,0.000,0.000,24.504
11397,4.180,0.000,2.318,0.000,9.194,0.000,0.000,24.497
11478,2.800,-16.750,2.318,0.275,9.194,0.821,-0.008,33.815
11559,4.012,0.000,2.318,0.326,9.194,0.962,0.001,37.351
11641,4.040,0.000,2.318,0.326,9.194,0.962,0.000,34.236
11723,4.050,0.000,2.318,0.326,9.194,0.962,0.000,31.750
11805,4.055,0.000,2.318,0.326,9.194,0.962,0.000,30.023
11887,4.057,0.000,2.318,0.326,9.194,0.962,0.000,28.754
11969,4.057,0.000,2.318,0.326,9.194,0.962,0.000,27.764
12051,4.058,0.000,2.318,0.326,9.194,0.962,0.000,27.091
12133,4.058,0.000,2.318,0.326,9.194,0.962,0.000,26.500
12215,4.058,0.000,2.318,0.326,9.194,0.962,0.000,26.031
12297,4.058,0.000,2.318,0.326,9.194,0.962,0.000,25.785
12379,4.058,0.000,2.318,0.326,9.194,0.962,0.000,25.480
12461,4.058,0.000,2.318,0.326,9.194,0.962,0.000,25.292
12543,4.059,0.000,2.318,0.326,9.194,0.962,0.000,25.153
12625,4.059,0.000,2.318,0.326,9.194,0.962,0.000,25.012
12707,4.059,0.000,2.318,0.326,9.194,0.962,0.000,24.917
12789,4.059,0.000,2.318,0.326,9.194,0.962,0.000,24.830
12871,4.059,0.000,2.318,0.326,9.194,0.962,0.000,24.797
12953,4.059,0.000,2.318,0.326,9.194,0.962,0.000,24.716
13035,4.059,0.000,2.318,0.326,9.194,0.962,0.000,24.714
13117,4.059,0.000,2.318,0.326,9.194,0.962,0.000,24.637
13199,4.059,0.000,2.318,0.326,9.194,0.962,0.000,24.632
13281,4.059,0.000,2.318,0.326,9.194,0.962,0.000,24.584
13363,4.059,0.000,2.318,0.326,9.194,0.962,0.000,24.594
13445,4.059,0.000,2.318,0.326,9.194,0.962,0.000,24.575
13527,4.059,0.000,2.318,0.326,9.194,0.962,0.000,24.553
13609,4.059,0.000,2.318,0.326,9.194,0.962,0.000,24.466
13691,4.059,0.000,2.318,0.326,9.194,0.962,0.000,24.497
13773,4.059,0.000,2.318,0.326,9.194,0.962,0.000,24.544
13855,4.059,0.000,2.318,0.326,9.194,0.962,0.000,24.532
13937,4.059,0.000,2.318,0.326,9.194,0.962,0.000,24.477
14019,4.059,0.000,2.318,0.326,9.194,0.962,0.000,24.470
14101,4.059,0.000,2.318,0.326,9.194,0.962,0.000,24.480
14183,4.059,0.000,2.318,0.326,9.194,0.962,0.000,24.489
14265,4.059,0.000,2.318,0.326,9.194,0.962,0.000,24.508
14347,4.059,0.000,2.318,0.326,9.194,0.962,0.000,24.516
14429,4.059,0.000,2.318,0.326,9.194,0.962,0.000,24.485
14511,4.059,0.000,2.318,0.326,9.194,0.962,0.000,24.595
14593,4.059,0.000,2.318,0.326,9.194,0.962,0.000,24.480
14675,4.059,0.000,2.318,0.326,9.194,0.962,0.000,24.498
14757,4.059,0.000,2.318,0.326,9.194,0.962,0.000,24.936
14839,4.059,0.000,2.318,0.326,9.194,0.962,0.000,24.873
14921,4.059,0.000,2.318,0.326,9.194,0.962,0.000,24.797
15003,4.059,0.000,2.318,0.326,9.194,0.962,0.000,24.600
15085,4.059,0.000,2.318,0.326,9.194,0.962,0.000,24.614
15089,4.059,0.000,2.318,0.326,9.194,0.962,0.000,24.578