File: data/T25/5C/3.csv
time_s,voltage_v,current_a,chargecapacity_ah,dischargecapacity_ah,charge_energy_wh,discharge_energy_wh,voltagedot_v_per_s,temp_degc
1,4.144,0.000,0.000,0.000,0.000,0.000,0.000,25.815
47,4.144,0.000,0.000,0.000,0.000,0.000,0.000,25.576
91,4.199,0.355,0.003,0.000,0.015,0.000,0.000,25.412
137,4.201,0.230,0.007,0.000,0.031,0.000,0.001,25.334
183,4.201,0.136,0.010,0.000,0.041,0.000,0.001,25.312
229,4.201,0.124,0.011,0.000,0.048,0.000,0.000,25.245
275,4.200,0.143,0.013,0.000,0.055,0.000,-0.001,25.258
321,4.199,0.100,0.015,0.000,0.062,0.000,0.001,25.221
367,4.200,0.103,0.016,0.000,0.067,0.000,0.000,25.247
413,4.199,0.109,0.017,0.000,0.073,0.000,0.002,25.187
459,4.200,0.112,0.019,0.000,0.079,0.000,0.000,25.236
505,4.200,0.175,0.021,0.000,0.087,0.000,0.001,25.194
551,4.200,0.158,0.023,0.000,0.096,0.000,0.001,25.172
597,4.200,0.188,0.025,0.000,0.105,0.000,0.000,25.165
643,4.200,0.195,0.028,0.000,0.116,0.000,0.000,25.223
689,4.200,0.164,0.030,0.000,0.127,0.000,0.000,25.192
735,4.200,0.120,0.032,0.000,0.135,0.000,-0.002,25.123
781,4.202,0.124,0.034,0.000,0.142,0.000,-0.001,25.166
827,4.201,0.094,0.035,0.000,0.148,0.000,0.000,25.104
873,4.202,0.089,0.036,0.000,0.153,0.000,0.000,25.115
919,4.202,0.086,0.038,0.000,0.158,0.000,0.001,25.122
965,4.200,0.083,0.039,0.000,0.162,0.000,0.000,25.144
1011,4.201,0.077,0.040,0.000,0.167,0.000,0.001,25.146
1057,4.201,0.080,0.041,0.000,0.171,0.000,-0.003,25.103
1103,4.201,0.086,0.042,0.000,0.176,0.000,-0.003,25.106
1149,4.175,0.000,0.042,0.000,0.178,0.000,0.000,25.122
1195,4.173,0.000,0.042,0.000,0.178,0.000,0.000,25.101
1241,4.173,0.000,0.042,0.000,0.178,0.000,0.000,25.125
1287,4.172,0.000,0.042,0.000,0.178,0.000,0.000,25.066
1333,4.172,0.000,0.042,0.000,0.178,0.000,0.000,25.104
1379,4.172,0.000,0.042,0.000,0.178,0.000,0.000,25.073
1425,4.171,0.000,0.042,0.000,0.178,0.000,0.000,25.088
1471,4.171,0.000,0.042,0.000,0.178,0.000,0.000,25.117
1517,4.171,0.000,0.042,0.000,0.178,0.000,0.000,25.060
1563,4.171,0.000,0.042,0.000,0.178,0.000,0.000,25.062
1609,4.171,0.000,0.042,0.000,0.178,0.000,0.000,25.057
1655,4.171,0.000,0.042,0.000,0.178,0.000,0.000,25.050
1701,4.171,0.000,0.042,0.000,0.178,0.000,0.000,25.072
1747,4.170,0.000,0.042,0.000,0.178,0.000,0.000,25.100
1793,4.170,0.000,0.042,0.000,0.178,0.000,0.000,25.058
1839,4.170,0.000,0.042,0.000,0.178,0.000,0.000,25.042
1885,4.170,0.000,0.042,0.000,0.178,0.000,0.000,25.058
1931,4.170,0.000,0.042,0.000,0.178,0.000,0.000,25.030
1977,4.170,0.000,0.042,0.000,0.178,0.000,0.000,25.072
2023,4.170,0.000,0.042,0.000,0.178,0.000,0.000,25.109
2069,4.170,0.000,0.042,0.000,0.178,0.000,0.000,25.068
2115,4.170,0.000,0.042,0.000,0.178,0.000,0.000,25.080
2161,4.170,0.000,0.042,0.000,0.178,0.000,0.000,25.043
2207,4.170,0.000,0.042,0.000,0.178,0.000,0.000,25.058
2253,4.170,0.000,0.042,0.000,0.178,0.000,0.000,25.041
2299,4.170,0.000,0.042,0.000,0.178,0.000,0.000,25.056
2345,4.170,0.000,0.042,0.000,0.178,0.000,0.000,25.041
2391,4.170,0.000,0.042,0.000,0.178,0.000,0.000,25.034
2437,4.170,0.000,0.042,0.000,0.178,0.000,0.000,25.086
2483,4.169,0.000,0.042,0.000,0.178,0.000,0.000,25.081
2529,4.169,0.000,0.042,0.000,0.178,0.000,0.000,25.083
2575,4.169,0.000,0.042,0.000,0.178,0.000,0.000,25.027
2621,4.169,0.000,0.042,0.000,0.178,0.000,0.000,25.006
2667,4.169,0.000,0.042,0.000,0.178,0.000,0.000,24.993
2713,4.169,0.000,0.042,0.000,0.178,0.000,0.000,25.042
2759,4.169,0.000,0.042,0.000,0.178,0.000,0.000,25.256
2805,4.169,0.000,0.042,0.000,0.178,0.000,0.000,25.365
2851,4.169,0.000,0.042,0.000,0.178,0.000,0.000,25.476
2897,4.169,0.000,0.042,0.000,0.178,0.000,0.000,25.415
2943,4.169,0.000,0.042,0.000,0.178,0.000,0.000,25.360
2989,4.169,0.000,0.042,0.000,0.178,0.000,0.000,25.365
3035,4.169,0.000,0.042,0.000,0.178,0.000,0.000,25.405
3081,4.169,0.000,0.042,0.000,0.178,0.000,0.000,25.315
3127,4.169,0.000,0.042,0.000,0.178,0.000,0.000,25.363
3173,4.169,0.000,0.042,0.000,0.178,0.000,0.000,25.370
3219,4.169,0.000,0.042,0.000,0.178,0.000,0.000,25.387
3265,4.169,0.000,0.042,0.000,0.178,0.000,0.000,25.367
3311,4.169,0.000,0.042,0.000,0.178,0.000,0.000,25.372
3357,4.169,0.000,0.042,0.000,0.178,0.000,0.000,25.382
3403,4.169,0.000,0.042,0.000,0.178,0.000,0.000,25.457
3449,4.169,0.000,0.042,0.000,0.178,0.000,0.000,25.418
3495,4.169,0.000,0.042,0.000,0.178,0.000,0.000,25.387
3541,4.169,0.000,0.042,0.000,0.178,0.000,0.000,25.414
3587,4.169,0.000,0.042,0.000,0.178,0.000,0.000,25.426
3633,4.169,0.000,0.042,0.000,0.178,0.000,0.000,25.435
3679,4.169,0.000,0.042,0.000,0.178,0.000,0.000,25.455
3725,4.169,0.000,0.042,0.000,0.178,0.000,0.000,25.467
3771,4.169,0.000,0.042,0.000,0.178,0.000,0.000,25.431
3817,4.169,0.000,0.042,0.000,0.178,0.000,0.000,25.481
3863,4.169,0.000,0.042,0.000,0.178,0.000,0.000,25.416
3909,4.169,0.000,0.042,0.000,0.178,0.000,0.000,25.406
3955,4.169,0.000,0.042,0.000,0.178,0.000,0.000,25.411
4001,4.169,0.000,0.042,0.000,0.178,0.000,0.000,25.410
4047,4.169,0.000,0.042,0.000,0.178,0.000,0.000,25.396
4093,4.169,0.000,0.042,0.000,0.178,0.000,0.000,25.421
4139,4.169,0.000,0.042,0.000,0.178,0.000,0.000,25.413
4185,4.169,0.000,0.042,0.000,0.178,0.000,0.000,25.377
4231,4.169,0.000,0.042,0.000,0.178,0.000,0.000,25.388
4277,4.169,0.000,0.042,0.000,0.178,0.000,0.000,25.398
4323,4.169,0.000,0.042,0.000,0.178,0.000,0.000,25.405
4369,4.169,0.000,0.042,0.000,0.178,0.000,0.000,25.417
4415,4.169,0.000,0.042,0.000,0.178,0.000,0.000,25.374
4461,4.169,0.000,0.042,0.000,0.178,0.000,0.000,25.381
4507,4.169,0.000,0.042,0.000,0.178,0.000,0.000,25.402
4553,4.169,0.000,0.042,0.000,0.178,0.000,0.000,25.362
4599,4.168,0.000,0.042,0.000,0.178,0.000,0.000,25.373
4645,4.168,0.000,0.042,0.000,0.178,0.000,0.000,25.365
4691,4.169,0.000,0.042,0.000,0.178,0.000,0.000,25.328
4736,2.967,-16.747,0.042,0.023,0.178,0.070,-0.010,25.435
4782,2.640,-16.747,0.042,0.237,0.178,0.672,-0.014,34.578
4827,3.944,0.000,0.042,0.317,0.178,0.878,0.003,40.853
4873,4.012,0.000,0.042,0.317,0.178,0.878,0.001,39.517
4919,4.031,0.000,0.042,0.317,0.178,0.878,0.000,37.504
4965,4.040,0.000,0.042,0.317,0.178,0.878,0.000,35.830
5011,4.045,0.000,0.042,0.317,0.178,0.878,0.000,34.307
5057,4.049,0.000,0.042,0.317,0.178,0.878,0.000,33.143
5103,4.051,0.000,0.042,0.317,0.178,0.878,0.000,32.066
5149,4.053,0.000,0.042,0.317,0.178,0.878,0.000,31.185
5195,4.054,0.000,0.042,0.317,0.178,0.878,0.000,30.446
5241,4.054,0.000,0.042,0.317,0.178,0.878,0.000,29.826
5287,4.054,0.000,0.042,0.317,0.178,0.878,0.000,29.222
5333,4.055,0.000,0.042,0.317,0.178,0.878,0.000,28.731
5379,4.055,0.000,0.042,0.317,0.178,0.878,0.000,28.274
5425,4.055,0.000,0.042,0.317,0.178,0.878,0.000,27.896
5471,4.055,0.000,0.042,0.317,0.178,0.878,0.000,27.589
5517,4.055,0.000,0.042,0.317,0.178,0.878,0.000,27.328
5563,4.055,0.000,0.042,0.317,0.178,0.878,0.000,27.041
5609,4.055,0.000,0.042,0.317,0.178,0.878,0.000,26.818
5655,4.055,0.000,0.042,0.317,0.178,0.878,0.000,26.608
5701,4.055,0.000,0.042,0.317,0.178,0.878,0.000,26.479
5747,4.055,0.000,0.042,0.317,0.178,0.878,0.000,26.321
5793,4.055,0.000,0.042,0.317,0.178,0.878,0.000,26.224
5839,4.055,0.000,0.042,0.317,0.178,0.878,0.000,26.027
5885,4.055,0.000,0.042,0.317,0.178,0.878,0.000,25.962
5931,4.055,0.000,0.042,0.317,0.178,0.878,0.000,25.868
5977,4.055,0.000,0.042,0.317,0.178,0.878,0.000,25.748
6023,4.056,0.000,0.042,0.317,0.178,0.878,0.000,25.693
6069,4.056,0.000,0.042,0.317,0.178,0.878,0.000,25.605
6115,4.056,0.000,0.042,0.317,0.178,0.878,0.000,25.551
6161,4.056,0.000,0.042,0.317,0.178,0.878,0.000,25.507
6207,4.056,0.000,0.042,0.317,0.178,0.878,0.000,25.405
6253,4.056,0.000,0.042,0.317,0.178,0.878,0.000,25.391
6299,4.056,0.000,0.042,0.317,0.178,0.878,0.000,25.354
6345,4.056,0.000,0.042,0.317,0.178,0.878,0.000,25.298
6391,4.056,0.000,0.042,0.317,0.178,0.878,0.000,25.204
6437,4.056,0.000,0.042,0.317,0.178,0.878,0.000,25.246
6483,4.056,0.000,0.042,0.317,0.178,0.878,0.000,25.210
6529,4.056,0.000,0.042,0.317,0.178,0.878,0.000,25.164
6575,4.056,0.000,0.042,0.317,0.178,0.878,0.000,25.132
6621,4.056,0.000,0.042,0.317,0.178,0.878,0.000,25.104
6667,4.056,0.000,0.042,0.317,0.178,0.878,0.000,25.112
6713,4.056,0.000,0.042,0.317,0.178,0.878,0.000,25.091
6759,4.056,0.000,0.042,0.317,0.178,0.878,0.000,25.094
6805,4.056,0.000,0.042,0.317,0.178,0.878,0.000,25.076
6851,4.056,0.000,0.042,0.317,0.178,0.878,0.000,25.039
6897,4.056,0.000,0.042,0.317,0.178,0.878,0.000,25.007
6943,4.056,0.000,0.042,0.317,0.178,0.878,0.000,25.035
6989,4.056,0.000,0.042,0.317,0.178,0.878,0.000,25.038
7035,4.056,0.000,0.042,0.317,0.178,0.878,0.000,25.045
7081,4.056,0.000,0.042,0.317,0.178,0.878,0.000,25.003
7127,4.056,0.000,0.042,0.317,0.178,0.878,0.000,24.973
7173,4.056,0.000,0.042,0.317,0.178,0.878,0.000,24.977
7219,4.056,0.000,0.042,0.317,0.178,0.878,0.000,25.022
7265,4.056,0.000,0.042,0.317,0.178,0.878,0.000,24.984
7311,4.056,0.000,0.042,0.317,0.178,0.878,0.000,24.978
7357,4.056,0.000,0.042,0.317,0.178,0.878,0.000,24.978
7403,4.056,0.000,0.042,0.317,0.178,0.878,0.000,24.929
7449,4.056,0.000,0.042,0.317,0.178,0.878,0.000,24.962
7495,4.056,0.000,0.042,0.317,0.178,0.878,0.000,24.940
7541,4.056,0.000,0.042,0.317,0.178,0.878,0.000,24.985
7587,4.056,0.000,0.042,0.317,0.178,0.878,0.000,24.935
7633,4.056,0.000,0.042,0.317,0.178,0.878,0.000,24.931
7679,4.056,0.000,0.042,0.317,0.178,0.878,0.000,24.898
7725,4.056,0.000,0.042,0.317,0.178,0.878,0.000,24.935
7771,4.056,0.000,0.042,0.317,0.178,0.878,0.000,24.954
7817,4.056,0.000,0.042,0.317,0.178,0.878,0.000,24.980
7863,4.056,0.000,0.042,0.317,0.178,0.878,0.000,24.947
7909,4.056,0.000,0.042,0.317,0.178,0.878,0.000,24.930
7955,4.056,0.000,0.042,0.317,0.178,0.878,0.000,24.954
8001,4.056,0.000,0.042,0.317,0.178,0.878,0.000,24.925
8047,4.056,0.000,0.042,0.317,0.178,0.878,0.000,24.929
8093,4.056,0.000,0.042,0.317,0.178,0.878,0.000,24.922
8139,4.056,0.000,0.042,0.317,0.178,0.878,0.000,24.945
8185,4.056,0.000,0.042,0.317,0.178,0.878,0.000,24.979
8231,4.057,0.000,0.042,0.317,0.178,0.878,0.000,24.911
8277,4.056,0.000,0.042,0.317,0.178,0.878,0.000,24.932
8323,4.056,0.000,0.042,0.317,0.178,0.878,0.000,24.987
8369,4.056,0.000,0.042,0.317,0.178,0.878,0.000,24.940
8399,4.056,0.000,0.042,0.317,0.178,0.878,0.000,24.963