File: data/T25/5C/4.csv
time_s,voltage_v,current_a,chargecapacity_ah,dischargecapacity_ah,charge_energy_wh,discharge_energy_wh,voltagedot_v_per_s,temp_degc
1,3.499,0.000,0.000,0.000,0.000,0.000,0.000,24.709
88,3.628,1.625,0.013,0.000,0.046,0.000,0.001,24.755
176,3.650,1.625,0.052,0.000,0.190,0.000,0.000,24.954
264,3.660,1.625,0.092,0.000,0.336,0.000,0.000,25.098
352,3.669,1.625,0.132,0.000,0.481,0.000,0.000,25.271
440,3.676,1.625,0.172,0.000,0.627,0.000,0.000,25.434
528,3.685,1.625,0.211,0.000,0.773,0.000,0.000,25.593
616,3.693,1.625,0.251,0.000,0.920,0.000,0.000,25.704
704,3.701,1.625,0.291,0.000,1.067,0.000,0.000,25.797
792,3.709,1.625,0.330,0.000,1.214,0.000,0.000,25.875
880,3.717,1.625,0.370,0.000,1.361,0.000,0.000,26.017
968,3.726,1.625,0.410,0.000,1.509,0.000,0.000,26.082
1056,3.734,1.625,0.450,0.000,1.657,0.000,0.000,26.153
1144,3.741,1.625,0.489,0.000,1.806,0.000,0.000,26.202
1232,3.749,1.625,0.529,0.000,1.955,0.000,0.000,26.261
1320,3.756,1.625,0.569,0.000,2.104,0.000,0.000,26.280
1408,3.764,1.625,0.609,0.000,2.253,0.000,0.000,26.393
1496,3.771,1.625,0.648,0.000,2.403,0.000,0.000,26.377
1584,3.779,1.625,0.688,0.000,2.553,0.000,0.000,26.401
1672,3.787,1.625,0.728,0.000,2.703,0.000,0.000,26.380
1760,3.795,1.625,0.767,0.000,2.854,0.000,0.000,26.450
1848,3.804,1.625,0.807,0.000,3.005,0.000,0.000,26.470
1936,3.813,1.625,0.847,0.000,3.156,0.000,0.000,26.486
2024,3.822,1.625,0.887,0.000,3.308,0.000,0.000,26.464
2112,3.831,1.625,0.926,0.000,3.460,0.000,0.000,26.455
2200,3.841,1.625,0.966,0.000,3.612,0.000,0.000,26.511
2288,3.851,1.625,1.006,0.000,3.765,0.000,0.000,26.515
2376,3.862,1.625,1.046,0.000,3.918,0.000,0.000,26.510
2464,3.873,1.625,1.085,0.000,4.072,0.000,0.000,26.528
2552,3.884,1.625,1.125,0.000,4.226,0.000,0.000,26.544
2640,3.896,1.625,1.165,0.000,4.380,0.000,0.000,26.537
2728,3.907,1.625,1.204,0.000,4.535,0.000,0.000,26.559
2816,3.919,1.625,1.244,0.000,4.691,0.000,0.000,26.566
2904,3.931,1.625,1.284,0.000,4.847,0.000,0.000,26.539
2992,3.944,1.625,1.324,0.000,5.003,0.000,0.000,26.524
3080,3.956,1.625,1.363,0.000,5.160,0.000,0.000,26.558
3168,3.968,1.625,1.403,0.000,5.318,0.000,0.000,26.490
3256,3.980,1.625,1.443,0.000,5.475,0.000,0.000,26.438
3344,3.992,1.625,1.483,0.000,5.634,0.000,0.000,26.484
3432,4.008,1.625,1.522,0.000,5.793,0.000,0.000,26.529
3520,4.019,1.625,1.562,0.000,5.952,0.000,0.000,26.460
3608,4.031,1.625,1.602,0.000,6.112,0.000,0.000,26.643
3696,4.041,1.625,1.641,0.000,6.272,0.000,0.000,26.872
3784,4.052,1.625,1.681,0.000,6.433,0.000,0.000,26.688
3872,4.063,1.625,1.721,0.000,6.594,0.000,0.000,26.617
3960,4.076,1.625,1.761,0.000,6.756,0.000,0.000,26.628
4048,4.088,1.625,1.800,0.000,6.918,0.000,0.000,26.664
4136,4.101,1.625,1.840,0.000,7.081,0.000,0.000,26.688
4224,4.115,1.625,1.880,0.000,7.244,0.000,0.000,26.763
4312,4.129,1.625,1.920,0.000,7.408,0.000,0.000,26.807
4400,4.144,1.625,1.959,0.000,7.572,0.000,0.000,26.880
4488,4.159,1.625,1.999,0.000,7.737,0.000,0.000,26.926
4576,4.175,1.625,2.039,0.000,7.903,0.000,0.000,26.927
4664,4.191,1.625,2.079,0.000,8.069,0.000,0.000,27.020
4752,4.200,1.536,2.118,0.000,8.233,0.000,0.000,27.055
4840,4.200,1.386,2.153,0.000,8.382,0.000,0.000,27.021
4928,4.200,1.265,2.186,0.000,8.518,0.000,0.000,26.990
5016,4.200,1.158,2.215,0.000,8.642,0.000,0.000,26.905
5104,4.200,1.066,2.242,0.000,8.756,0.000,0.000,26.791
5192,4.200,0.985,2.267,0.000,8.862,0.000,0.000,26.642
5280,4.200,0.914,2.290,0.000,8.959,0.000,0.000,26.535
5368,4.200,0.852,2.312,0.000,9.049,0.000,0.000,26.468
5456,4.200,0.798,2.332,0.000,9.134,0.000,0.000,26.374
5544,4.200,0.749,2.351,0.000,9.213,0.000,0.000,26.270
5632,4.200,0.706,2.369,0.000,9.288,0.000,0.000,26.164
5720,4.200,0.665,2.385,0.000,9.358,0.000,0.000,26.106
5808,4.200,0.627,2.401,0.000,9.424,0.000,0.000,26.014
5896,4.200,0.591,2.416,0.000,9.487,0.000,0.000,25.930
5984,4.200,0.556,2.430,0.000,9.546,0.000,0.000,25.848
6072,4.200,0.522,2.443,0.000,9.601,0.000,0.000,25.785
6160,4.200,0.490,2.456,0.000,9.653,0.000,0.000,25.710
6248,4.200,0.459,2.467,0.000,9.702,0.000,0.000,25.660
6336,4.200,0.430,2.478,0.000,9.747,0.000,0.000,25.617
6424,4.200,0.402,2.488,0.000,9.790,0.000,0.000,25.520
6512,4.200,0.375,2.498,0.000,9.830,0.000,0.000,25.455
6600,4.200,0.349,2.507,0.000,9.867,0.000,0.000,25.401
6688,4.200,0.325,2.515,0.000,9.902,0.000,0.000,25.348
6776,4.200,0.302,2.523,0.000,9.934,0.000,0.000,25.301
6864,4.200,0.281,2.530,0.000,9.964,0.000,0.000,25.243
6952,4.200,0.261,2.536,0.000,9.991,0.000,0.000,25.213
7040,4.200,0.242,2.542,0.000,10.017,0.000,0.000,25.198
7128,4.200,0.224,2.548,0.000,10.041,0.000,0.000,25.123
7216,4.200,0.208,2.553,0.000,10.063,0.000,0.000,25.028
7304,4.200,0.193,2.558,0.000,10.084,0.000,0.000,25.030
7392,4.200,0.178,2.563,0.000,10.103,0.000,0.000,24.996
7480,4.200,0.165,2.567,0.000,10.120,0.000,0.000,24.942
7568,4.200,0.154,2.571,0.000,10.137,0.000,0.000,24.934
7656,4.200,0.142,2.574,0.000,10.152,0.000,0.000,24.887
7744,4.200,0.132,2.578,0.000,10.166,0.000,0.000,24.811
7832,4.200,0.122,2.581,0.000,10.179,0.000,0.000,24.836
7920,4.200,0.114,2.584,0.000,10.191,0.000,0.000,24.791
8008,4.200,0.106,2.587,0.000,10.202,0.000,0.000,24.796
8096,4.200,0.098,2.589,0.000,10.213,0.000,0.000,24.733
8184,4.200,0.092,2.591,0.000,10.223,0.000,0.000,24.769
8272,4.200,0.086,2.594,0.000,10.232,0.000,0.000,24.715
8360,4.200,0.080,2.596,0.000,10.240,0.000,0.000,24.697
8448,4.200,0.074,2.597,0.000,10.248,0.000,0.000,24.710
8536,4.200,0.071,2.599,0.000,10.256,0.000,0.000,24.695
8624,4.200,0.065,2.601,0.000,10.263,0.000,0.000,24.686
8711,4.193,0.000,2.601,0.000,10.263,0.000,0.000,24.660
8799,4.192,0.000,2.601,0.000,10.263,0.000,0.000,24.668
8887,4.190,0.000,2.601,0.000,10.263,0.000,0.000,24.689
8975,4.189,0.000,2.601,0.000,10.263,0.000,0.000,24.625
9063,4.189,0.000,2.601,0.000,10.263,0.000,0.000,24.672
9151,4.188,0.000,2.601,0.000,10.263,0.000,0.000,24.625
9239,4.187,0.000,2.601,0.000,10.263,0.000,0.000,24.694
9327,4.187,0.000,2.601,0.000,10.263,0.000,0.000,24.627
9415,4.186,0.000,2.601,0.000,10.263,0.000,0.000,24.682
9503,4.186,0.000,2.601,0.000,10.263,0.000,0.000,24.647
9591,4.185,0.000,2.601,0.000,10.263,0.000,0.000,24.642
9679,4.185,0.000,2.601,0.000,10.263,0.000,0.000,24.677
9767,4.185,0.000,2.601,0.000,10.263,0.000,0.000,24.652
9855,4.184,0.000,2.601,0.000,10.263,0.000,0.000,24.667
9943,4.184,0.000,2.601,0.000,10.263,0.000,0.000,24.673
10031,4.184,0.000,2.601,0.000,10.263,0.000,0.000,24.682
10119,4.183,0.000,2.601,0.000,10.263,0.000,0.000,24.658
10207,4.183,0.000,2.601,0.000,10.263,0.000,0.000,24.675
10295,4.183,0.000,2.601,0.000,10.263,0.000,0.000,24.677
10383,4.183,0.000,2.601,0.000,10.263,0.000,0.000,24.707
10471,4.182,0.000,2.601,0.000,10.263,0.000,0.000,24.710
10559,4.182,0.000,2.601,0.000,10.263,0.000,0.000,24.680
10647,4.182,0.000,2.601,0.000,10.263,0.000,0.000,24.678
10735,4.181,0.000,2.601,0.000,10.263,0.000,0.000,24.734
10823,4.181,0.000,2.601,0.000,10.263,0.000,0.000,24.733
10911,4.181,0.000,2.601,0.000,10.263,0.000,0.000,24.678
10999,4.181,0.000,2.601,0.000,10.263,0.000,0.000,24.701
11087,4.181,0.000,2.601,0.000,10.263,0.000,0.000,24.727
11175,4.181,0.000,2.601,0.000,10.263,0.000,0.000,24.691
11263,4.180,0.000,2.601,0.000,10.263,0.000,0.000,24.751
11351,4.180,0.000,2.601,0.000,10.263,0.000,0.000,24.703
11439,4.180,0.000,2.601,0.000,10.263,0.000,0.000,24.738
11527,4.180,0.000,2.601,0.000,10.263,0.000,0.000,24.728
11615,4.180,0.000,2.601,0.000,10.263,0.000,0.000,24.754
11703,4.180,0.000,2.601,0.000,10.263,0.000,0.000,24.715
11791,4.180,0.000,2.601,0.000,10.263,0.000,0.000,24.730
11879,4.179,0.000,2.601,0.000,10.263,0.000,0.000,24.722
11967,4.179,0.000,2.601,0.000,10.263,0.000,0.000,24.754
12055,4.179,0.000,2.601,0.000,10.263,0.000,0.000,24.785
12143,4.179,0.000,2.601,0.000,10.263,0.000,0.000,24.770
12230,3.099,-16.747,2.601,0.019,10.263,0.058,-0.018,24.835
12317,3.901,0.000,2.601,0.351,10.263,1.005,0.005,41.203
12405,4.021,0.000,2.601,0.351,10.263,1.005,0.000,38.822
12493,4.035,0.000,2.601,0.351,10.263,1.005,0.000,35.426
12581,4.042,0.000,2.601,0.351,10.263,1.005,0.000,32.833
12669,4.046,0.000,2.601,0.351,10.263,1.005,0.000,31.003
12757,4.048,0.000,2.601,0.351,10.263,1.005,0.000,29.571
12845,4.048,0.000,2.601,0.351,10.263,1.005,0.000,28.572
12933,4.049,0.000,2.601,0.351,10.263,1.005,0.000,27.756
13021,4.049,0.000,2.601,0.351,10.263,1.005,0.000,27.164
13109,4.049,0.000,2.601,0.351,10.263,1.005,0.000,26.682
13197,4.049,0.000,2.601,0.351,10.263,1.005,0.000,26.289
13285,4.049,0.000,2.601,0.351,10.263,1.005,0.000,25.976
13373,4.049,0.000,2.601,0.351,10.263,1.005,0.000,25.782
13461,4.050,0.000,2.601,0.351,10.263,1.005,0.000,25.594
13549,4.050,0.000,2.601,0.351,10.263,1.005,0.000,25.509
13637,4.050,0.000,2.601,0.351,10.263,1.005,0.000,25.339
13725,4.050,0.000,2.601,0.351,10.263,1.005,0.000,25.265
13813,4.050,0.000,2.601,0.351,10.263,1.005,0.000,25.189
13901,4.050,0.000,2.601,0.351,10.263,1.005,0.000,25.094
13989,4.050,0.000,2.601,0.351,10.263,1.005,0.000,25.034
14077,4.050,0.000,2.601,0.351,10.263,1.005,0.000,25.024
14165,4.050,0.000,2.601,0.351,10.263,1.005,0.000,24.997
14253,4.050,0.000,2.601,0.351,10.263,1.005,0.000,24.991
14341,4.050,0.000,2.601,0.351,10.263,1.005,0.000,24.915
14429,4.050,0.000,2.601,0.351,10.263,1.005,0.000,24.942
14517,4.050,0.000,2.601,0.351,10.263,1.005,0.000,24.951
14605,4.050,0.000,2.601,0.351,10.263,1.005,0.000,24.892
14693,4.050,0.000,2.601,0.351,10.263,1.005,0.000,24.968
14781,4.050,0.000,2.601,0.351,10.263,1.005,0.000,25.146
14869,4.050,0.000,2.601,0.351,10.263,1.005,0.000,25.186
14957,4.050,0.000,2.601,0.351,10.263,1.005,0.000,25.143
15045,4.050,0.000,2.601,0.351,10.263,1.005,0.000,25.062
15133,4.050,0.000,2.601,0.351,10.263,1.005,0.000,25.091
15221,4.050,0.000,2.601,0.351,10.263,1.005,0.000,25.095
15309,4.050,0.000,2.601,0.351,10.263,1.005,0.000,25.082
15397,4.050,0.000,2.601,0.351,10.263,1.005,0.000,25.113
15485,4.050,0.000,2.601,0.351,10.263,1.005,0.000,25.120
15573,4.050,0.000,2.601,0.351,10.263,1.005,0.000,25.152
15661,4.050,0.000,2.601,0.351,10.263,1.005,0.000,25.178
15749,4.050,0.000,2.601,0.351,10.263,1.005,0.000,25.151
15837,4.050,0.000,2.601,0.351,10.263,1.005,0.000,25.166
15901,4.050,0.000,2.601,0.351,10.263,1.005,0.000,25.193