File: data/T25/5C/6.csv
time_s,voltage_v,current_a,chargecapacity_ah,dischargecapacity_ah,charge_energy_wh,discharge_energy_wh,voltagedot_v_per_s,temp_degc
1,4.074,0.000,0.000,0.000,0.000,0.000,0.000,23.699
53,4.074,0.000,0.000,0.000,0.000,0.000,0.000,23.799
104,4.197,1.625,0.020,0.000,0.083,0.002,0.000,24.081
155,4.200,1.479,0.042,0.000,0.176,0.002,0.000,24.340
207,4.200,1.358,0.062,0.000,0.262,0.002,0.000,24.542
259,4.200,1.259,0.081,0.000,0.341,0.002,0.000,24.726
311,4.200,1.170,0.099,0.000,0.415,0.002,0.000,24.833
363,4.200,1.086,0.115,0.000,0.484,0.002,0.000,24.870
415,4.200,1.006,0.130,0.000,0.547,0.002,0.000,24.991
467,4.200,0.929,0.144,0.000,0.606,0.002,0.000,25.007
519,4.200,0.855,0.157,0.000,0.660,0.002,0.000,25.011
571,4.200,0.785,0.169,0.000,0.709,0.002,0.000,25.039
623,4.200,0.718,0.180,0.000,0.755,0.002,0.000,25.017
675,4.200,0.657,0.190,0.000,0.797,0.002,0.000,25.033
727,4.200,0.598,0.199,0.000,0.835,0.002,0.000,24.999
779,4.200,0.544,0.207,0.000,0.869,0.002,0.000,24.982
831,4.200,0.494,0.215,0.000,0.901,0.002,0.000,24.985
883,4.200,0.448,0.221,0.000,0.929,0.002,0.000,24.973
935,4.200,0.407,0.227,0.000,0.955,0.002,0.000,24.897
987,4.200,0.369,0.233,0.000,0.979,0.002,0.000,24.876
1039,4.200,0.336,0.238,0.000,1.000,0.002,0.000,24.878
1091,4.200,0.306,0.243,0.000,1.020,0.002,0.000,24.839
1143,4.200,0.278,0.247,0.000,1.037,0.002,0.000,24.854
1195,4.200,0.254,0.251,0.000,1.053,0.002,0.000,24.824
1247,4.200,0.234,0.254,0.000,1.068,0.002,0.000,24.786
1299,4.200,0.214,0.258,0.000,1.082,0.002,0.000,24.844
1351,4.200,0.197,0.261,0.000,1.094,0.002,0.000,24.789
1403,4.200,0.182,0.263,0.000,1.106,0.002,0.000,24.781
1455,4.200,0.168,0.266,0.000,1.116,0.002,0.000,24.749
1507,4.200,0.156,0.268,0.000,1.126,0.002,0.000,24.747
1559,4.200,0.146,0.270,0.000,1.135,0.002,0.000,24.718
1611,4.200,0.135,0.272,0.000,1.144,0.002,0.000,24.782
1663,4.200,0.126,0.274,0.000,1.152,0.002,0.000,24.706
1715,4.200,0.118,0.276,0.000,1.159,0.002,0.000,24.664
1767,4.200,0.111,0.278,0.000,1.166,0.002,0.000,24.682
1819,4.200,0.104,0.279,0.000,1.172,0.002,0.000,24.681
1871,4.200,0.097,0.281,0.000,1.179,0.002,0.000,24.686
1923,4.200,0.092,0.282,0.000,1.184,0.002,0.000,24.670
1975,4.200,0.086,0.283,0.000,1.190,0.002,0.000,24.653
2027,4.200,0.081,0.285,0.000,1.195,0.002,0.000,24.639
2079,4.200,0.076,0.286,0.000,1.199,0.002,0.000,24.650
2131,4.200,0.072,0.287,0.000,1.204,0.002,0.000,24.605
2183,4.200,0.069,0.288,0.000,1.208,0.002,0.000,24.693
2235,4.195,0.000,0.289,0.000,1.212,0.002,0.000,24.636
2287,4.194,0.000,0.289,0.000,1.212,0.002,0.000,24.655
2339,4.193,0.000,0.289,0.000,1.212,0.002,0.000,24.598
2391,4.192,0.000,0.289,0.000,1.212,0.002,0.000,24.665
2443,4.191,0.000,0.289,0.000,1.212,0.002,0.000,24.582
2495,4.191,0.000,0.289,0.000,1.212,0.002,0.000,24.609
2547,4.190,0.000,0.289,0.000,1.212,0.002,0.000,24.631
2599,4.190,0.000,0.289,0.000,1.212,0.002,0.000,24.641
2651,4.190,0.000,0.289,0.000,1.212,0.002,0.000,24.639
2703,4.189,0.000,0.289,0.000,1.212,0.002,0.000,24.652
2755,4.189,0.000,0.289,0.000,1.212,0.002,0.000,24.671
2807,4.189,0.000,0.289,0.000,1.212,0.002,0.000,24.625
2859,4.188,0.000,0.289,0.000,1.212,0.002,0.000,24.619
2911,4.188,0.000,0.289,0.000,1.212,0.002,0.000,24.618
2963,4.188,0.000,0.289,0.000,1.212,0.002,0.000,24.628
3015,4.188,0.000,0.289,0.000,1.212,0.002,0.000,24.632
3067,4.188,0.000,0.289,0.000,1.212,0.002,0.000,24.653
3119,4.187,0.000,0.289,0.000,1.212,0.002,0.000,24.637
3171,4.187,0.000,0.289,0.000,1.212,0.002,0.000,24.659
3223,4.187,0.000,0.289,0.000,1.212,0.002,0.000,24.593
3275,4.187,0.000,0.289,0.000,1.212,0.002,0.000,24.645
3327,4.187,0.000,0.289,0.000,1.212,0.002,0.000,24.666
3379,4.186,0.000,0.289,0.000,1.212,0.002,0.000,24.609
3431,4.186,0.000,0.289,0.000,1.212,0.002,0.000,24.665
3483,4.186,0.000,0.289,0.000,1.212,0.002,0.000,24.665
3535,4.186,0.000,0.289,0.000,1.212,0.002,0.000,24.630
3587,4.186,0.000,0.289,0.000,1.212,0.002,0.000,24.671
3639,4.186,0.000,0.289,0.000,1.212,0.002,0.000,24.654
3691,4.186,0.000,0.289,0.000,1.212,0.002,0.000,24.676
3743,4.185,0.000,0.289,0.000,1.212,0.002,0.000,24.647
3795,4.185,0.000,0.289,0.000,1.212,0.002,0.000,24.667
3847,4.185,0.000,0.289,0.000,1.212,0.002,0.000,24.629
3899,4.185,0.000,0.289,0.000,1.212,0.002,0.000,24.652
3951,4.185,0.000,0.289,0.000,1.212,0.002,0.000,24.669
4003,4.185,0.000,0.289,0.000,1.212,0.002,0.000,24.668
4055,4.185,0.000,0.289,0.000,1.212,0.002,0.000,24.676
4107,4.185,0.000,0.289,0.000,1.212,0.002,0.000,24.608
4159,4.185,0.000,0.289,0.000,1.212,0.002,0.000,24.616
4211,4.185,0.000,0.289,0.000,1.212,0.002,0.000,24.661
4263,4.185,0.000,0.289,0.000,1.212,0.002,0.000,24.643
4315,4.184,0.000,0.289,0.000,1.212,0.002,0.000,24.657
4367,4.184,0.000,0.289,0.000,1.212,0.002,0.000,24.640
4419,4.184,0.000,0.289,0.000,1.212,0.002,0.000,24.678
4471,4.184,0.000,0.289,0.000,1.212,0.002,0.000,24.674
4523,4.184,0.000,0.289,0.000,1.212,0.002,0.000,24.677
4575,4.184,0.000,0.289,0.000,1.212,0.002,0.000,24.622
4627,4.184,0.000,0.289,0.000,1.212,0.002,0.000,24.682
4679,4.184,0.000,0.289,0.000,1.212,0.002,0.000,24.605
4731,4.184,0.000,0.289,0.000,1.212,0.002,0.000,24.606
4783,4.184,0.000,0.289,0.000,1.212,0.002,0.000,24.654
4835,4.184,0.000,0.289,0.000,1.212,0.002,0.000,24.613
4887,4.184,0.000,0.289,0.000,1.212,0.002,0.000,24.630
4939,4.184,0.000,0.289,0.000,1.212,0.002,0.000,24.617
4991,4.184,0.000,0.289,0.000,1.212,0.002,0.000,24.604
5043,4.183,0.000,0.289,0.000,1.212,0.002,0.000,24.626
5095,4.183,0.000,0.289,0.000,1.212,0.002,0.000,24.608
5147,4.183,0.000,0.289,0.000,1.212,0.002,0.000,24.625
5199,4.183,0.000,0.289,0.000,1.212,0.002,0.000,24.636
5251,4.183,0.000,0.289,0.000,1.212,0.002,0.000,24.610
5303,4.183,0.000,0.289,0.000,1.212,0.002,0.000,24.618
5355,4.183,0.000,0.289,0.000,1.212,0.002,0.000,24.653
5407,4.183,0.000,0.289,0.000,1.212,0.002,0.000,24.652
5459,4.183,0.000,0.289,0.000,1.212,0.002,0.000,24.624
5511,4.183,0.000,0.289,0.000,1.212,0.002,0.000,24.645
5563,4.183,0.000,0.289,0.000,1.212,0.002,0.000,24.634
5615,4.183,0.000,0.289,0.000,1.212,0.002,0.000,24.657
5667,4.183,0.000,0.289,0.000,1.212,0.002,0.000,24.635
5719,4.183,0.000,0.289,0.000,1.212,0.002,0.000,24.591
5771,4.183,0.000,0.289,0.000,1.212,0.002,0.000,24.648
5823,4.183,0.000,0.289,0.000,1.212,0.002,0.000,24.647
5874,2.863,-16.751,0.289,0.219,1.212,0.657,-0.005,33.270
5926,3.972,0.000,0.289,0.310,1.212,0.909,0.002,39.169
5978,4.028,0.000,0.289,0.310,1.212,0.909,0.000,37.494
6030,4.042,0.000,0.289,0.310,1.212,0.909,0.000,35.353
6082,4.049,0.000,0.289,0.310,1.212,0.909,0.000,33.475
6134,4.054,0.000,0.289,0.310,1.212,0.909,0.000,32.123
6186,4.058,0.000,0.289,0.310,1.212,0.909,0.000,30.805
6238,4.060,0.000,0.289,0.310,1.212,0.909,0.000,29.822
6290,4.061,0.000,0.289,0.310,1.212,0.909,0.000,28.983
6342,4.062,0.000,0.289,0.310,1.212,0.909,0.000,28.337
6394,4.063,0.000,0.289,0.310,1.212,0.909,0.000,27.848
6446,4.063,0.000,0.289,0.310,1.212,0.909,0.000,27.296
6498,4.063,0.000,0.289,0.310,1.212,0.909,0.000,26.877
6550,4.063,0.000,0.289,0.310,1.212,0.909,0.000,26.670
6602,4.063,0.000,0.289,0.310,1.212,0.909,0.000,26.592
6654,4.064,0.000,0.289,0.310,1.212,0.909,0.000,26.246
6706,4.064,0.000,0.289,0.310,1.212,0.909,0.000,25.980
6758,4.064,0.000,0.289,0.310,1.212,0.909,0.000,25.799
6810,4.064,0.000,0.289,0.310,1.212,0.909,0.000,25.566
6862,4.064,0.000,0.289,0.310,1.212,0.909,0.000,25.376
6914,4.064,0.000,0.289,0.310,1.212,0.909,0.000,25.291
6966,4.064,0.000,0.289,0.310,1.212,0.909,0.000,25.208
7018,4.064,0.000,0.289,0.310,1.212,0.909,0.000,25.123
7070,4.064,0.000,0.289,0.310,1.212,0.909,0.000,25.013
7122,4.064,0.000,0.289,0.310,1.212,0.909,0.000,25.036
7174,4.064,0.000,0.289,0.310,1.212,0.909,0.000,24.940
7226,4.064,0.000,0.289,0.310,1.212,0.909,0.000,24.910
7278,4.064,0.000,0.289,0.310,1.212,0.909,0.000,24.871
7330,4.064,0.000,0.289,0.310,1.212,0.909,0.000,24.818
7382,4.064,0.000,0.289,0.310,1.212,0.909,0.000,24.813
7434,4.064,0.000,0.289,0.310,1.212,0.909,0.000,24.782
7486,4.064,0.000,0.289,0.310,1.212,0.909,0.000,24.778
7538,4.064,0.000,0.289,0.310,1.212,0.909,0.000,24.754
7590,4.065,0.000,0.289,0.310,1.212,0.909,0.000,24.719
7642,4.064,0.000,0.289,0.310,1.212,0.909,0.000,24.710
7694,4.064,0.000,0.289,0.310,1.212,0.909,0.000,24.718
7746,4.065,0.000,0.289,0.310,1.212,0.909,0.000,24.705
7798,4.065,0.000,0.289,0.310,1.212,0.909,0.000,24.716
7850,4.065,0.000,0.289,0.310,1.212,0.909,0.000,24.720
7902,4.065,0.000,0.289,0.310,1.212,0.909,0.000,24.679
7954,4.065,0.000,0.289,0.310,1.212,0.909,0.000,24.682
8006,4.065,0.000,0.289,0.310,1.212,0.909,0.000,24.702
8058,4.065,0.000,0.289,0.310,1.212,0.909,0.000,24.704
8110,4.065,0.000,0.289,0.310,1.212,0.909,0.000,24.625
8162,4.065,0.000,0.289,0.310,1.212,0.909,0.000,24.643
8214,4.065,0.000,0.289,0.310,1.212,0.909,0.000,24.658
8266,4.065,0.000,0.289,0.310,1.212,0.909,0.000,24.646
8318,4.065,0.000,0.289,0.310,1.212,0.909,0.000,24.666
8370,4.065,0.000,0.289,0.310,1.212,0.909,0.000,24.658
8422,4.065,0.000,0.289,0.310,1.212,0.909,0.000,24.677
8474,4.065,0.000,0.289,0.310,1.212,0.909,0.000,24.646
8526,4.065,0.000,0.289,0.310,1.212,0.909,0.000,24.669
8578,4.065,0.000,0.289,0.310,1.212,0.909,0.000,24.650
8630,4.065,0.000,0.289,0.310,1.212,0.909,0.000,24.626
8682,4.065,0.000,0.289,0.310,1.212,0.909,0.000,24.671
8734,4.065,0.000,0.289,0.310,1.212,0.909,0.000,24.686
8786,4.065,0.000,0.289,0.310,1.212,0.909,0.000,24.655
8838,4.065,0.000,0.289,0.310,1.212,0.909,0.000,24.601
8890,4.065,0.000,0.289,0.310,1.212,0.909,0.000,24.645
8942,4.065,0.000,0.289,0.310,1.212,0.909,0.000,24.706
8994,4.065,0.000,0.289,0.310,1.212,0.909,0.000,24.654
9046,4.065,0.000,0.289,0.310,1.212,0.909,0.000,24.616
9098,4.065,0.000,0.289,0.310,1.212,0.909,0.000,24.670
9150,4.065,0.000,0.289,0.310,1.212,0.909,0.000,24.661
9202,4.065,0.000,0.289,0.310,1.212,0.909,0.000,24.612
9254,4.065,0.000,0.289,0.310,1.212,0.909,0.000,24.641
9306,4.065,0.000,0.289,0.310,1.212,0.909,0.000,24.640
9358,4.065,0.000,0.289,0.310,1.212,0.909,0.000,24.659
9410,4.065,0.000,0.289,0.310,1.212,0.909,0.000,24.672
9462,4.065,0.000,0.289,0.310,1.212,0.909,0.000,24.596
9494,4.065,0.000,0.289,0.310,1.212,0.909,0.000,24.641