File: data/T35/2C/1.csv
time_s,voltage_v,current_a,chargecapacity_ah,dischargecapacity_ah,charge_energy_wh,discharge_energy_wh,voltagedot_v_per_s,temp_degc
1,3.268,0.000,0.000,0.000,0.000,0.000,0.000,35.067
125,3.268,0.000,0.000,0.000,0.000,0.000,0.000,35.073
249,3.268,0.000,0.000,0.000,0.000,0.000,0.000,35.051
373,3.268,0.000,0.000,0.000,0.000,0.000,0.000,35.093
497,3.268,0.000,0.000,0.000,0.000,0.000,0.000,35.077
621,3.268,0.000,0.000,0.000,0.000,0.000,0.000,35.106
745,3.268,0.000,0.000,0.000,0.000,0.000,0.000,35.090
869,3.268,0.000,0.000,0.000,0.000,0.000,0.000,35.093
993,3.268,0.000,0.000,0.000,0.000,0.000,0.000,35.063
1117,3.268,0.000,0.000,0.000,0.000,0.000,0.000,35.076
1241,3.268,0.000,0.000,0.000,0.000,0.000,0.000,35.095
1365,3.269,0.000,0.000,0.000,0.000,0.000,0.000,35.111
1489,3.268,0.000,0.000,0.000,0.000,0.000,0.000,35.091
1613,3.269,0.000,0.000,0.000,0.000,0.000,0.000,35.075
1737,3.268,0.000,0.000,0.000,0.000,0.000,0.000,35.121
1861,3.269,0.000,0.000,0.000,0.000,0.000,0.000,35.072
1985,3.269,0.000,0.000,0.000,0.000,0.000,0.000,35.105
2109,3.269,0.000,0.000,0.000,0.000,0.000,0.000,35.078
2233,3.269,0.000,0.000,0.000,0.000,0.000,0.000,35.087
2357,3.269,0.000,0.000,0.000,0.000,0.000,0.000,35.087
2481,3.269,0.000,0.000,0.000,0.000,0.000,0.000,35.065
2605,3.269,0.000,0.000,0.000,0.000,0.000,0.000,35.108
2729,3.269,0.000,0.000,0.000,0.000,0.000,0.000,35.099
2853,3.269,0.000,0.000,0.000,0.000,0.000,0.000,35.077
2977,3.269,0.000,0.000,0.000,0.000,0.000,0.000,35.117
3101,3.269,0.000,0.000,0.000,0.000,0.000,0.000,35.096
3225,3.269,0.000,0.000,0.000,0.000,0.000,0.000,35.098
3349,3.269,0.000,0.000,0.000,0.000,0.000,0.000,35.079
3473,3.269,0.000,0.000,0.000,0.000,0.000,0.000,35.120
3597,3.269,0.000,0.000,0.000,0.000,0.000,0.000,35.055
3720,3.543,1.625,0.054,0.000,0.191,0.000,0.000,35.202
3844,3.555,1.625,0.110,0.000,0.389,0.000,0.000,35.534
3968,3.568,1.625,0.166,0.000,0.589,0.000,0.000,35.708
4092,3.582,1.625,0.222,0.000,0.789,0.000,0.000,35.883
4216,3.595,1.625,0.278,0.000,0.990,0.000,0.000,35.939
4340,3.609,1.625,0.334,0.000,1.191,0.000,0.000,36.031
4464,3.624,1.625,0.390,0.000,1.394,0.000,0.000,36.031
4588,3.641,1.625,0.446,0.000,1.597,0.000,0.000,36.030
4712,3.657,1.625,0.502,0.000,1.801,0.000,0.000,35.990
4836,3.671,1.625,0.558,0.000,2.007,0.000,0.000,35.928
4960,3.683,1.625,0.614,0.000,2.212,0.000,0.000,35.883
5084,3.694,1.625,0.670,0.000,2.419,0.000,0.000,35.905
5208,3.706,1.625,0.726,0.000,2.626,0.000,0.000,35.945
5332,3.717,1.625,0.782,0.000,2.834,0.000,0.000,35.982
5456,3.729,1.625,0.838,0.000,3.042,0.000,0.000,35.973
5580,3.741,1.625,0.894,0.000,3.251,0.000,0.000,36.015
5704,3.752,1.625,0.950,0.000,3.461,0.000,0.000,36.048
5828,3.764,1.625,1.006,0.000,3.671,0.000,0.000,36.085
5952,3.775,1.625,1.062,0.000,3.882,0.000,0.000,36.180
6076,3.786,1.625,1.118,0.000,4.094,0.000,0.000,36.201
6200,3.797,1.625,1.174,0.000,4.306,0.000,0.000,36.183
6324,3.807,1.625,1.230,0.000,4.519,0.000,0.000,36.205
6448,3.817,1.625,1.286,0.000,4.733,0.000,0.000,36.277
6572,3.828,1.625,1.342,0.000,4.947,0.000,0.000,36.285
6696,3.840,1.625,1.398,0.000,5.161,0.000,0.000,36.266
6820,3.852,1.625,1.454,0.000,5.376,0.000,0.000,36.288
6944,3.864,1.625,1.510,0.000,5.592,0.000,0.000,36.277
7068,3.878,1.625,1.566,0.000,5.809,0.000,0.000,36.289
7192,3.892,1.625,1.622,0.000,6.027,0.000,0.000,36.293
7316,3.907,1.625,1.678,0.000,6.245,0.000,0.000,36.280
7440,3.922,1.625,1.734,0.000,6.464,0.000,0.000,36.311
7564,3.938,1.625,1.790,0.000,6.684,0.000,0.000,36.282
7688,3.953,1.625,1.846,0.000,6.905,0.000,0.000,36.275
7812,3.969,1.625,1.901,0.000,7.127,0.000,0.000,36.302
7936,3.985,1.625,1.957,0.000,7.349,0.000,0.000,36.278
8060,4.001,1.625,2.013,0.000,7.573,0.000,0.000,36.258
8184,4.017,1.625,2.069,0.000,7.797,0.000,0.000,36.277
8308,4.033,1.625,2.125,0.000,8.023,0.000,0.000,36.215
8432,4.049,1.625,2.181,0.000,8.249,0.000,0.000,36.221
8556,4.064,1.625,2.237,0.000,8.476,0.000,0.000,36.204
8680,4.080,1.625,2.293,0.000,8.704,0.000,0.000,36.244
8804,4.096,1.625,2.349,0.000,8.933,0.000,0.000,36.228
8928,4.113,1.625,2.405,0.000,9.162,0.000,0.000,36.198
9052,4.130,1.625,2.461,0.000,9.393,0.000,0.000,36.218
9176,4.149,1.625,2.517,0.000,9.625,0.000,0.000,36.241
9300,4.169,1.625,2.573,0.000,9.858,0.000,0.000,36.266
9424,4.191,1.625,2.629,0.000,10.092,0.000,0.000,36.282
9547,4.200,1.506,2.684,0.000,10.320,0.000,0.000,36.369
9671,4.200,1.347,2.733,0.000,10.526,0.000,0.000,36.252
9795,4.200,1.211,2.777,0.000,10.711,0.000,0.000,36.179
9919,4.200,1.094,2.816,0.000,10.877,0.000,0.000,36.107
10043,4.200,0.994,2.852,0.000,11.028,0.000,0.000,35.946
10167,4.200,0.907,2.885,0.000,11.166,0.000,0.000,35.861
10291,4.200,0.835,2.915,0.000,11.291,0.000,0.000,35.804
10415,4.200,0.772,2.943,0.000,11.407,0.000,0.000,35.714
10539,4.200,0.715,2.968,0.000,11.515,0.000,0.000,35.634
10663,4.200,0.664,2.992,0.000,11.615,0.000,0.000,35.582
10787,4.200,0.617,3.014,0.000,11.707,0.000,0.000,35.562
10911,4.200,0.573,3.034,0.000,11.793,0.000,0.000,35.457
11035,4.200,0.530,3.053,0.000,11.873,0.000,0.000,35.448
11159,4.200,0.489,3.071,0.000,11.947,0.000,0.000,35.387
11283,4.200,0.450,3.087,0.000,12.014,0.000,0.000,35.396
11407,4.200,0.413,3.102,0.000,12.077,0.000,0.000,35.340
11531,4.200,0.377,3.116,0.000,12.134,0.000,0.000,35.314
11655,4.200,0.344,3.128,0.000,12.186,0.000,0.000,35.294
11779,4.200,0.312,3.139,0.000,12.233,0.000,0.000,35.275
11903,4.200,0.283,3.149,0.000,12.276,0.000,0.000,35.231
12027,4.200,0.256,3.159,0.000,12.315,0.000,0.000,35.250
12151,4.200,0.230,3.167,0.000,12.350,0.000,0.000,35.258
12275,4.200,0.207,3.175,0.000,12.382,0.000,0.000,35.244
12399,4.200,0.186,3.181,0.000,12.410,0.000,0.000,35.240
12523,4.200,0.167,3.187,0.000,12.436,0.000,0.000,35.216
12647,4.200,0.150,3.193,0.000,12.459,0.000,0.000,35.152
12771,4.200,0.134,3.198,0.000,12.479,0.000,0.000,35.176
12895,4.200,0.121,3.202,0.000,12.498,0.000,0.000,35.149
13019,4.200,0.109,3.206,0.000,12.514,0.000,0.000,35.131
13143,4.200,0.097,3.210,0.000,12.529,0.000,0.000,35.169
13267,4.200,0.088,3.213,0.000,12.542,0.000,0.000,35.148
13391,4.200,0.079,3.216,0.000,12.554,0.000,0.000,35.171
13515,4.200,0.071,3.218,0.000,12.565,0.000,0.000,35.156
13638,4.193,0.000,3.220,0.000,12.574,0.000,0.000,35.167
13762,4.191,0.000,3.220,0.000,12.574,0.000,0.000,35.131
13886,4.190,0.000,3.220,0.000,12.574,0.000,0.000,35.088
14010,4.189,0.000,3.220,0.000,12.574,0.000,0.000,35.086
14134,4.188,0.000,3.220,0.000,12.574,0.000,0.000,35.116
14258,4.188,0.000,3.220,0.000,12.574,0.000,0.000,35.083
14382,4.187,0.000,3.220,0.000,12.574,0.000,0.000,35.104
14506,4.186,0.000,3.220,0.000,12.574,0.000,0.000,35.062
14630,4.186,0.000,3.220,0.000,12.574,0.000,0.000,35.032
14754,4.185,0.000,3.220,0.000,12.574,0.000,0.000,35.093
14878,4.185,0.000,3.220,0.000,12.574,0.000,0.000,35.077
15002,4.185,0.000,3.220,0.000,12.574,0.000,0.000,35.100
15126,4.184,0.000,3.220,0.000,12.574,0.000,0.000,35.108
15250,4.184,0.000,3.220,0.000,12.574,0.000,0.000,35.112
15374,4.184,0.000,3.220,0.000,12.574,0.000,0.000,35.127
15498,4.183,0.000,3.220,0.000,12.574,0.000,0.000,35.083
15622,4.183,0.000,3.220,0.000,12.574,0.000,0.000,35.072
15746,4.183,0.000,3.220,0.000,12.574,0.000,0.000,35.063
15870,4.183,0.000,3.220,0.000,12.574,0.000,0.000,35.087
15994,4.183,0.000,3.220,0.000,12.574,0.000,0.000,35.082
16118,4.182,0.000,3.220,0.000,12.574,0.000,0.000,35.083
16242,4.182,0.000,3.220,0.000,12.574,0.000,0.000,35.083
16366,4.182,0.000,3.220,0.000,12.574,0.000,0.000,35.081
16490,4.182,0.000,3.220,0.000,12.574,0.000,0.000,35.089
16614,4.182,0.000,3.220,0.000,12.574,0.000,0.000,35.099
16738,4.182,0.000,3.220,0.000,12.574,0.000,0.000,35.130
16862,4.181,0.000,3.220,0.000,12.574,0.000,0.000,35.083
16986,4.181,0.000,3.220,0.000,12.574,0.000,0.000,35.057
17110,4.181,0.000,3.220,0.000,12.574,0.000,0.000,35.027
17233,3.539,-6.698,3.220,0.030,12.574,0.106,-0.002,35.239
17357,3.433,-6.696,3.220,0.260,12.574,0.908,-0.001,38.373
17481,3.353,-6.696,3.220,0.491,12.574,1.690,-0.001,40.526
17605,3.272,-6.696,3.220,0.722,12.574,2.454,-0.001,42.044
17729,3.195,-6.696,3.220,0.952,12.574,3.200,-0.001,43.169
17853,3.116,-6.696,3.220,1.183,12.574,3.928,-0.001,44.080
17977,3.040,-6.696,3.220,1.414,12.574,4.638,-0.001,44.969
18101,2.970,-6.697,3.220,1.644,12.574,5.331,-0.001,45.539
18225,2.906,-6.697,3.220,1.875,12.574,6.008,-0.001,46.183
18349,2.843,-6.697,3.220,2.106,12.574,6.671,-0.001,46.853
18473,2.775,-6.697,3.220,2.336,12.574,7.320,-0.001,47.478
18597,2.697,-6.698,3.220,2.567,12.574,7.951,-0.001,48.171
18721,2.605,-6.698,3.220,2.798,12.574,8.563,-0.001,48.963
18845,3.241,0.000,3.220,2.996,12.574,9.069,0.003,49.587
18969,3.336,0.000,3.220,2.996,12.574,9.069,0.000,45.136
19093,3.341,0.000,3.220,2.996,12.574,9.069,0.000,41.928
19217,3.343,0.000,3.220,2.996,12.574,9.069,0.000,39.741
19341,3.344,0.000,3.220,2.996,12.574,9.069,0.000,38.193
19465,3.344,0.000,3.220,2.996,12.574,9.069,0.000,37.163
19589,3.344,0.000,3.220,2.996,12.574,9.069,0.000,36.519
19713,3.344,0.000,3.220,2.996,12.574,9.069,0.000,36.026
19837,3.344,0.000,3.220,2.996,12.574,9.069,0.000,35.698
19961,3.344,0.000,3.220,2.996,12.574,9.069,0.000,35.556
20085,3.344,0.000,3.220,2.996,12.574,9.069,0.000,35.363
20209,3.344,0.000,3.220,2.996,12.574,9.069,0.000,35.307
20333,3.344,0.000,3.220,2.996,12.574,9.069,0.000,35.261
20457,3.344,0.000,3.220,2.996,12.574,9.069,0.000,35.232
20581,3.344,0.000,3.220,2.996,12.574,9.069,0.000,35.139
20705,3.343,0.000,3.220,2.996,12.574,9.069,0.000,35.169
20829,3.343,0.000,3.220,2.996,12.574,9.069,0.000,35.147
20953,3.343,0.000,3.220,2.996,12.574,9.069,0.000,35.139
21077,3.343,0.000,3.220,2.996,12.574,9.069,0.000,35.121
21201,3.343,0.000,3.220,2.996,12.574,9.069,0.000,35.098
21325,3.343,0.000,3.220,2.996,12.574,9.069,0.000,35.082
21449,3.343,0.000,3.220,2.996,12.574,9.069,0.000,35.107
21573,3.343,0.000,3.220,2.996,12.574,9.069,0.000,35.073
21697,3.343,0.000,3.220,2.996,12.574,9.069,0.000,35.119
21821,3.343,0.000,3.220,2.996,12.574,9.069,0.000,35.107
21945,3.343,0.000,3.220,2.996,12.574,9.069,0.000,35.100
22069,3.343,0.000,3.220,2.996,12.574,9.069,0.000,35.097
22193,3.343,0.000,3.220,2.996,12.574,9.069,0.000,35.064
22317,3.343,0.000,3.220,2.996,12.574,9.069,0.000,35.132
22428,3.343,0.000,3.220,2.996,12.574,9.069,0.000,35.078