File: data/T35/2C/2.csv
time_s,voltage_v,current_a,chargecapacity_ah,dischargecapacity_ah,charge_energy_wh,discharge_energy_wh,voltagedot_v_per_s,temp_degc
1,3.294,0.000,0.000,0.000,0.000,0.000,0.000,34.657
122,3.294,0.000,0.000,0.000,0.000,0.000,0.000,34.658
243,3.294,0.000,0.000,0.000,0.000,0.000,0.000,34.644
364,3.294,0.000,0.000,0.000,0.000,0.000,0.000,34.671
485,3.294,0.000,0.000,0.000,0.000,0.000,0.000,34.680
606,3.294,0.000,0.000,0.000,0.000,0.000,0.000,34.702
727,3.294,0.000,0.000,0.000,0.000,0.000,0.000,34.707
848,3.294,0.000,0.000,0.000,0.000,0.000,0.000,34.710
969,3.294,0.000,0.000,0.000,0.000,0.000,0.000,34.690
1090,3.294,0.000,0.000,0.000,0.000,0.000,0.000,34.651
1211,3.294,0.000,0.000,0.000,0.000,0.000,0.000,34.663
1332,3.294,0.000,0.000,0.000,0.000,0.000,0.000,34.647
1453,3.294,0.000,0.000,0.000,0.000,0.000,0.000,34.620
1574,3.294,0.000,0.000,0.000,0.000,0.000,0.000,34.699
1695,3.294,0.000,0.000,0.000,0.000,0.000,0.000,34.673
1816,3.294,0.000,0.000,0.000,0.000,0.000,0.000,34.654
1937,3.295,0.000,0.000,0.000,0.000,0.000,0.000,34.659
2058,3.295,0.000,0.000,0.000,0.000,0.000,0.000,34.689
2179,3.295,0.000,0.000,0.000,0.000,0.000,0.000,34.633
2300,3.294,0.000,0.000,0.000,0.000,0.000,0.000,34.640
2421,3.295,0.000,0.000,0.000,0.000,0.000,0.000,34.693
2542,3.295,0.000,0.000,0.000,0.000,0.000,0.000,34.710
2663,3.295,0.000,0.000,0.000,0.000,0.000,0.000,34.657
2784,3.295,0.000,0.000,0.000,0.000,0.000,0.000,34.670
2905,3.295,0.000,0.000,0.000,0.000,0.000,0.000,34.683
3026,3.295,0.000,0.000,0.000,0.000,0.000,0.000,34.659
3147,3.295,0.000,0.000,0.000,0.000,0.000,0.000,34.668
3268,3.295,0.000,0.000,0.000,0.000,0.000,0.000,34.625
3389,3.295,0.000,0.000,0.000,0.000,0.000,0.000,34.696
3510,3.295,0.000,0.000,0.000,0.000,0.000,0.000,34.657
3630,3.491,1.625,0.014,0.000,0.047,0.000,0.000,34.643
3751,3.512,1.625,0.068,0.000,0.239,0.000,0.000,34.979
3872,3.526,1.625,0.123,0.000,0.431,0.000,0.000,35.262
3993,3.539,1.625,0.177,0.000,0.624,0.000,0.000,35.441
4114,3.551,1.625,0.232,0.000,0.817,0.000,0.000,35.518
4235,3.565,1.625,0.287,0.000,1.012,0.000,0.000,35.614
4356,3.579,1.625,0.341,0.000,1.207,0.000,0.000,35.655
4477,3.594,1.625,0.396,0.000,1.403,0.000,0.000,35.610
4598,3.609,1.625,0.451,0.000,1.600,0.000,0.000,35.604
4719,3.623,1.625,0.505,0.000,1.797,0.000,0.000,35.574
4840,3.634,1.625,0.560,0.000,1.995,0.000,0.000,35.574
4961,3.645,1.625,0.615,0.000,2.194,0.000,0.000,35.562
5082,3.655,1.625,0.669,0.000,2.394,0.000,0.000,35.504
5203,3.666,1.625,0.724,0.000,2.594,0.000,0.000,35.524
5324,3.677,1.625,0.778,0.000,2.794,0.000,0.000,35.614
5445,3.689,1.625,0.833,0.000,2.995,0.000,0.000,35.552
5566,3.700,1.625,0.888,0.000,3.197,0.000,0.000,35.657
5687,3.711,1.625,0.942,0.000,3.400,0.000,0.000,35.688
5808,3.722,1.625,0.997,0.000,3.603,0.000,0.000,35.752
5929,3.733,1.625,1.052,0.000,3.806,0.000,0.000,35.747
6050,3.743,1.625,1.106,0.000,4.011,0.000,0.000,35.793
6171,3.753,1.625,1.161,0.000,4.215,0.000,0.000,35.828
6292,3.763,1.625,1.215,0.000,4.421,0.000,0.000,35.848
6413,3.773,1.625,1.270,0.000,4.627,0.000,0.000,35.857
6534,3.784,1.625,1.325,0.000,4.833,0.000,0.000,35.868
6655,3.795,1.625,1.379,0.000,5.040,0.000,0.000,35.846
6776,3.807,1.625,1.434,0.000,5.248,0.000,0.000,35.829
6897,3.819,1.625,1.489,0.000,5.456,0.000,0.000,35.887
7018,3.832,1.625,1.543,0.000,5.665,0.000,0.000,35.867
7139,3.845,1.625,1.598,0.000,5.875,0.000,0.000,35.865
7260,3.860,1.625,1.653,0.000,6.085,0.000,0.000,35.853
7381,3.875,1.625,1.707,0.000,6.297,0.000,0.000,35.847
7502,3.890,1.625,1.762,0.000,6.509,0.000,0.000,35.856
7623,3.905,1.625,1.816,0.000,6.722,0.000,0.000,35.886
7744,3.921,1.625,1.871,0.000,6.935,0.000,0.000,35.852
7865,3.936,1.625,1.926,0.000,7.150,0.000,0.000,35.846
7986,3.952,1.625,1.980,0.000,7.366,0.000,0.000,35.824
8107,3.968,1.625,2.035,0.000,7.582,0.000,0.000,35.804
8228,3.983,1.625,2.090,0.000,7.799,0.000,0.000,35.814
8349,3.999,1.625,2.144,0.000,8.017,0.000,0.000,35.783
8470,4.014,1.625,2.199,0.000,8.236,0.000,0.000,35.773
8591,4.029,1.625,2.254,0.000,8.456,0.000,0.000,35.782
8712,4.045,1.625,2.308,0.000,8.676,0.000,0.000,35.770
8833,4.061,1.625,2.363,0.000,8.898,0.000,0.000,35.760
8954,4.078,1.625,2.417,0.000,9.120,0.000,0.000,35.772
9075,4.096,1.625,2.472,0.000,9.343,0.000,0.000,35.849
9196,4.115,1.625,2.527,0.000,9.567,0.000,0.000,35.873
9317,4.135,1.625,2.581,0.000,9.793,0.000,0.000,35.861
9438,4.157,1.625,2.636,0.000,10.019,0.000,0.000,35.941
9559,4.179,1.625,2.691,0.000,10.247,0.000,0.000,35.969
9680,4.200,1.607,2.745,0.000,10.475,0.000,0.000,35.935
9801,4.200,1.375,2.795,0.000,10.684,0.000,0.000,35.927
9922,4.200,1.216,2.838,0.000,10.867,0.000,0.000,35.853
10043,4.200,1.088,2.877,0.000,11.029,0.000,0.000,35.709
10164,4.200,0.979,2.911,0.000,11.174,0.000,0.000,35.531
10285,4.200,0.887,2.943,0.000,11.306,0.000,0.000,35.474
10406,4.200,0.806,2.971,0.000,11.425,0.000,0.000,35.353
10527,4.200,0.732,2.997,0.000,11.534,0.000,0.000,35.291
10648,4.200,0.664,3.020,0.000,11.632,0.000,0.000,35.218
10769,4.200,0.601,3.042,0.000,11.721,0.000,0.000,35.176
10890,4.200,0.541,3.061,0.000,11.802,0.000,0.000,35.092
11011,4.200,0.486,3.078,0.000,11.874,0.000,0.000,35.021
11132,4.200,0.434,3.094,0.000,11.939,0.000,0.000,35.006
11253,4.200,0.387,3.107,0.000,11.997,0.000,0.000,34.902
11374,4.200,0.344,3.120,0.000,12.049,0.000,0.000,34.928
11495,4.200,0.304,3.131,0.000,12.094,0.000,0.000,34.886
11616,4.200,0.269,3.140,0.000,12.135,0.000,0.000,34.826
11737,4.200,0.237,3.149,0.000,12.171,0.000,0.000,34.829
11858,4.200,0.210,3.156,0.000,12.202,0.000,0.000,34.809
11979,4.200,0.185,3.163,0.000,12.230,0.000,0.000,34.806
12100,4.200,0.163,3.169,0.000,12.255,0.000,0.000,34.794
12221,4.200,0.144,3.174,0.000,12.276,0.000,0.000,34.747
12342,4.200,0.127,3.178,0.000,12.295,0.000,0.000,34.752
12463,4.200,0.113,3.182,0.000,12.312,0.000,0.000,34.747
12584,4.200,0.100,3.186,0.000,12.327,0.000,0.000,34.681
12705,4.200,0.089,3.189,0.000,12.341,0.000,0.000,34.718
12826,4.200,0.080,3.192,0.000,12.353,0.000,0.000,34.728
12947,4.200,0.071,3.195,0.000,12.363,0.000,0.000,34.705
13068,4.195,0.000,3.196,0.000,12.370,0.000,0.000,34.711
13189,4.192,0.000,3.196,0.000,12.370,0.000,0.000,34.706
13310,4.191,0.000,3.196,0.000,12.370,0.000,0.000,34.723
13431,4.190,0.000,3.196,0.000,12.370,0.000,0.000,34.698
13552,4.189,0.000,3.196,0.000,12.370,0.000,0.000,34.710
13673,4.189,0.000,3.196,0.000,12.370,0.000,0.000,34.696
13794,4.188,0.000,3.196,0.000,12.370,0.000,0.000,34.691
13915,4.187,0.000,3.196,0.000,12.370,0.000,0.000,34.681
14036,4.187,0.000,3.196,0.000,12.370,0.000,0.000,34.677
14157,4.186,0.000,3.196,0.000,12.370,0.000,0.000,34.690
14278,4.186,0.000,3.196,0.000,12.370,0.000,0.000,34.661
14399,4.186,0.000,3.196,0.000,12.370,0.000,0.000,34.664
14520,4.186,0.000,3.196,0.000,12.370,0.000,0.000,34.642
14641,4.185,0.000,3.196,0.000,12.370,0.000,0.000,34.650
14762,4.185,0.000,3.196,0.000,12.370,0.000,0.000,34.662
14883,4.185,0.000,3.196,0.000,12.370,0.000,0.000,34.646
15004,4.184,0.000,3.196,0.000,12.370,0.000,0.000,34.686
15125,4.184,0.000,3.196,0.000,12.370,0.000,0.000,34.680
15246,4.184,0.000,3.196,0.000,12.370,0.000,0.000,34.670
15367,4.184,0.000,3.196,0.000,12.370,0.000,0.000,34.663
15488,4.183,0.000,3.196,0.000,12.370,0.000,0.000,34.645
15609,4.183,0.000,3.196,0.000,12.370,0.000,0.000,34.663
15730,4.183,0.000,3.196,0.000,12.370,0.000,0.000,34.653
15851,4.183,0.000,3.196,0.000,12.370,0.000,0.000,34.626
15972,4.183,0.000,3.196,0.000,12.370,0.000,0.000,34.643
16093,4.182,0.000,3.196,0.000,12.370,0.000,0.000,34.645
16214,4.182,0.000,3.196,0.000,12.370,0.000,0.000,34.716
16335,4.182,0.000,3.196,0.000,12.370,0.000,0.000,34.633
16456,4.182,0.000,3.196,0.000,12.370,0.000,0.000,34.695
16577,4.182,0.000,3.196,0.000,12.370,0.000,0.000,34.654
16697,3.657,-6.701,3.196,0.114,12.371,0.420,-0.001,36.153
16818,3.590,-6.699,3.196,0.339,12.371,1.235,-0.001,38.976
16939,3.514,-6.699,3.196,0.564,12.371,2.035,-0.001,40.744
17060,3.437,-6.699,3.196,0.789,12.371,2.818,-0.001,41.866
17181,3.361,-6.699,3.196,1.014,12.371,3.583,-0.001,42.824
17302,3.285,-6.698,3.196,1.239,12.371,4.331,-0.001,43.641
17423,3.212,-6.698,3.196,1.465,12.371,5.062,0.000,44.336
17544,3.145,-6.699,3.196,1.690,12.371,5.778,0.000,44.944
17665,3.081,-6.698,3.196,1.915,12.371,6.479,0.000,45.660
17786,3.018,-6.698,3.196,2.140,12.371,7.165,-0.001,46.253
17907,2.947,-6.698,3.196,2.365,12.371,7.837,-0.001,47.075
18028,2.863,-6.698,3.196,2.590,12.371,8.491,-0.001,47.873
18149,2.759,-6.698,3.196,2.815,12.371,9.124,-0.001,48.753
18270,2.600,-6.698,3.196,3.040,12.371,9.729,-0.002,50.238
18391,3.278,0.000,3.196,3.122,12.371,9.937,0.001,48.008
18512,3.311,0.000,3.196,3.122,12.371,9.937,0.000,43.520
18633,3.318,0.000,3.196,3.122,12.371,9.937,0.000,40.700
18754,3.321,0.000,3.196,3.122,12.371,9.937,0.000,38.794
18875,3.322,0.000,3.196,3.122,12.371,9.937,0.000,37.522
18996,3.322,0.000,3.196,3.122,12.371,9.937,0.000,36.704
19117,3.323,0.000,3.196,3.122,12.371,9.937,0.000,36.061
19238,3.323,0.000,3.196,3.122,12.371,9.937,0.000,35.668
19359,3.323,0.000,3.196,3.122,12.371,9.937,0.000,35.388
19480,3.323,0.000,3.196,3.122,12.371,9.937,0.000,35.217
19601,3.323,0.000,3.196,3.122,12.371,9.937,0.000,35.086
19722,3.323,0.000,3.196,3.122,12.371,9.937,0.000,35.002
19843,3.323,0.000,3.196,3.122,12.371,9.937,0.000,34.891
19964,3.323,0.000,3.196,3.122,12.371,9.937,0.000,34.806
20085,3.323,0.000,3.196,3.122,12.371,9.937,0.000,34.764
20206,3.323,0.000,3.196,3.122,12.371,9.937,0.000,34.767
20327,3.323,0.000,3.196,3.122,12.371,9.937,0.000,34.756
20448,3.323,0.000,3.196,3.122,12.371,9.937,0.000,34.771
20569,3.323,0.000,3.196,3.122,12.371,9.937,0.000,34.711
20690,3.323,0.000,3.196,3.122,12.371,9.937,0.000,34.696
20811,3.323,0.000,3.196,3.122,12.371,9.937,0.000,34.711
20932,3.324,0.000,3.196,3.122,12.371,9.937,0.000,34.670
21053,3.324,0.000,3.196,3.122,12.371,9.937,0.000,34.656
21174,3.324,0.000,3.196,3.122,12.371,9.937,0.000,34.692
21295,3.324,0.000,3.196,3.122,12.371,9.937,0.000,34.682
21416,3.324,0.000,3.196,3.122,12.371,9.937,0.000,34.674
21537,3.323,0.000,3.196,3.122,12.371,9.937,0.000,34.692
21658,3.324,0.000,3.196,3.122,12.371,9.937,0.000,34.671
21779,3.324,0.000,3.196,3.122,12.371,9.937,0.000,34.699
21900,3.324,0.000,3.196,3.122,12.371,9.937,0.000,34.681
21914,3.324,0.000,3.196,3.122,12.371,9.937,0.000,34.689