File: data/T35/2C/3.csv
time_s,voltage_v,current_a,chargecapacity_ah,dischargecapacity_ah,charge_energy_wh,discharge_energy_wh,voltagedot_v_per_s,temp_degc
1,3.290,0.000,0.000,0.000,0.000,0.000,0.000,34.220
123,3.290,0.000,0.000,0.000,0.000,0.000,0.000,34.212
245,3.290,0.000,0.000,0.000,0.000,0.000,0.000,34.204
367,3.291,0.000,0.000,0.000,0.000,0.000,0.000,34.223
489,3.291,0.000,0.000,0.000,0.000,0.000,0.000,34.308
611,3.291,0.000,0.000,0.000,0.000,0.000,0.000,34.225
733,3.291,0.000,0.000,0.000,0.000,0.000,0.000,34.223
855,3.291,0.000,0.000,0.000,0.000,0.000,0.000,34.223
977,3.291,0.000,0.000,0.000,0.000,0.000,0.000,34.197
1099,3.291,0.000,0.000,0.000,0.000,0.000,0.000,34.286
1221,3.291,0.000,0.000,0.000,0.000,0.000,0.000,34.211
1343,3.291,0.000,0.000,0.000,0.000,0.000,0.000,34.218
1465,3.291,0.000,0.000,0.000,0.000,0.000,0.000,34.238
1587,3.291,0.000,0.000,0.000,0.000,0.000,0.000,34.221
1709,3.291,0.000,0.000,0.000,0.000,0.000,0.000,34.211
1831,3.291,0.000,0.000,0.000,0.000,0.000,0.000,34.227
1953,3.291,0.000,0.000,0.000,0.000,0.000,0.000,34.215
2075,3.291,0.000,0.000,0.000,0.000,0.000,0.000,34.222
2197,3.291,0.000,0.000,0.000,0.000,0.000,0.000,34.187
2319,3.291,0.000,0.000,0.000,0.000,0.000,0.000,34.211
2441,3.291,0.000,0.000,0.000,0.000,0.000,0.000,34.229
2563,3.291,0.000,0.000,0.000,0.000,0.000,0.000,34.229
2685,3.292,0.000,0.000,0.000,0.000,0.000,0.000,34.227
2807,3.292,0.000,0.000,0.000,0.000,0.000,0.000,34.219
2929,3.292,0.000,0.000,0.000,0.000,0.000,0.000,34.201
3051,3.292,0.000,0.000,0.000,0.000,0.000,0.000,34.244
3173,3.292,0.000,0.000,0.000,0.000,0.000,0.000,34.192
3295,3.292,0.000,0.000,0.000,0.000,0.000,0.000,34.206
3417,3.292,0.000,0.000,0.000,0.000,0.000,0.000,34.207
3539,3.292,0.000,0.000,0.000,0.000,0.000,0.000,34.218
3660,3.505,1.625,0.027,0.000,0.094,0.000,0.000,34.284
3782,3.519,1.625,0.082,0.000,0.288,0.000,0.000,34.650
3904,3.533,1.625,0.137,0.000,0.482,0.000,0.000,34.908
4026,3.547,1.625,0.192,0.000,0.677,0.000,0.000,35.134
4148,3.560,1.625,0.247,0.000,0.873,0.000,0.000,35.239
4270,3.574,1.625,0.302,0.000,1.069,0.000,0.000,35.360
4392,3.588,1.625,0.358,0.000,1.266,0.000,0.000,35.360
4514,3.604,1.625,0.413,0.000,1.465,0.000,0.000,35.359
4636,3.618,1.625,0.468,0.000,1.663,0.000,0.000,35.336
4758,3.631,1.625,0.523,0.000,1.863,0.000,0.000,35.241
4880,3.642,1.625,0.578,0.000,2.063,0.000,0.000,35.266
5002,3.652,1.625,0.633,0.000,2.264,0.000,0.000,35.271
5124,3.663,1.625,0.688,0.000,2.466,0.000,0.000,35.248
5246,3.675,1.625,0.743,0.000,2.668,0.000,0.000,35.281
5368,3.686,1.625,0.798,0.000,2.871,0.000,0.000,35.352
5490,3.698,1.625,0.853,0.000,3.074,0.000,0.000,35.340
5612,3.709,1.625,0.908,0.000,3.278,0.000,0.000,35.380
5734,3.720,1.625,0.963,0.000,3.482,0.000,0.000,35.451
5856,3.732,1.625,1.018,0.000,3.688,0.000,0.000,35.469
5978,3.742,1.625,1.074,0.000,3.894,0.000,0.000,35.524
6100,3.752,1.625,1.129,0.000,4.100,0.000,0.000,35.535
6222,3.763,1.625,1.184,0.000,4.307,0.000,0.000,35.523
6344,3.773,1.625,1.239,0.000,4.514,0.000,0.000,35.574
6466,3.783,1.625,1.294,0.000,4.722,0.000,0.000,35.615
6588,3.794,1.625,1.349,0.000,4.931,0.000,0.000,35.643
6710,3.805,1.625,1.404,0.000,5.140,0.000,0.000,35.615
6832,3.817,1.625,1.459,0.000,5.350,0.000,0.000,35.676
6954,3.830,1.625,1.514,0.000,5.561,0.000,0.000,35.654
7076,3.843,1.625,1.569,0.000,5.772,0.000,0.000,35.680
7198,3.857,1.625,1.624,0.000,5.984,0.000,0.000,35.672
7320,3.872,1.625,1.679,0.000,6.197,0.000,0.000,35.687
7442,3.887,1.625,1.734,0.000,6.411,0.000,0.000,35.709
7564,3.902,1.625,1.790,0.000,6.625,0.000,0.000,35.666
7686,3.918,1.625,1.845,0.000,6.841,0.000,0.000,35.654
7808,3.934,1.625,1.900,0.000,7.057,0.000,0.000,35.641
7930,3.950,1.625,1.955,0.000,7.274,0.000,0.000,35.649
8052,3.965,1.625,2.010,0.000,7.492,0.000,0.000,35.633
8174,3.981,1.625,2.065,0.000,7.711,0.000,0.000,35.635
8296,3.997,1.625,2.120,0.000,7.930,0.000,0.000,35.587
8418,4.012,1.625,2.175,0.000,8.151,0.000,0.000,35.621
8540,4.028,1.625,2.230,0.000,8.372,0.000,0.000,35.573
8662,4.043,1.625,2.285,0.000,8.595,0.000,0.000,35.548
8784,4.059,1.625,2.340,0.000,8.818,0.000,0.000,35.601
8906,4.076,1.625,2.395,0.000,9.042,0.000,0.000,35.557
9028,4.093,1.625,2.450,0.000,9.267,0.000,0.000,35.589
9150,4.112,1.625,2.506,0.000,9.493,0.000,0.000,35.643
9272,4.131,1.625,2.561,0.000,9.720,0.000,0.000,35.689
9394,4.153,1.625,2.616,0.000,9.948,0.000,0.000,35.710
9516,4.174,1.625,2.671,0.000,10.177,0.000,0.000,35.773
9638,4.197,1.625,2.726,0.000,10.408,0.000,0.000,35.819
9760,4.200,1.419,2.778,0.000,10.624,0.000,0.000,35.744
9882,4.200,1.254,2.823,0.000,10.814,0.000,0.000,35.695
10004,4.200,1.119,2.863,0.000,10.983,0.000,0.000,35.610
10126,4.200,1.008,2.899,0.000,11.134,0.000,0.000,35.446
10248,4.200,0.913,2.931,0.000,11.270,0.000,0.000,35.270
10370,4.200,0.832,2.961,0.000,11.394,0.000,0.000,35.161
10492,4.200,0.759,2.988,0.000,11.507,0.000,0.000,35.090
10614,4.200,0.693,3.012,0.000,11.611,0.000,0.000,34.972
10736,4.200,0.632,3.035,0.000,11.705,0.000,0.000,34.905
10858,4.200,0.574,3.055,0.000,11.791,0.000,0.000,34.804
10980,4.200,0.519,3.074,0.000,11.868,0.000,0.000,34.697
11102,4.200,0.468,3.090,0.000,11.939,0.000,0.000,34.683
11224,4.200,0.421,3.105,0.000,12.002,0.000,0.000,34.610
11346,4.200,0.377,3.119,0.000,12.059,0.000,0.000,34.588
11468,4.200,0.336,3.131,0.000,12.109,0.000,0.000,34.533
11590,4.200,0.299,3.142,0.000,12.154,0.000,0.000,34.477
11712,4.200,0.265,3.151,0.000,12.194,0.000,0.000,34.451
11834,4.200,0.235,3.160,0.000,12.230,0.000,0.000,34.430
11956,4.200,0.208,3.167,0.000,12.262,0.000,0.000,34.405
12078,4.200,0.185,3.174,0.000,12.290,0.000,0.000,34.381
12200,4.200,0.164,3.180,0.000,12.314,0.000,0.000,34.384
12322,4.200,0.144,3.185,0.000,12.336,0.000,0.000,34.345
12444,4.200,0.128,3.190,0.000,12.355,0.000,0.000,34.315
12566,4.200,0.114,3.194,0.000,12.373,0.000,0.000,34.311
12688,4.200,0.102,3.197,0.000,12.388,0.000,0.000,34.311
12810,4.200,0.090,3.201,0.000,12.402,0.000,0.000,34.265
12932,4.200,0.081,3.204,0.000,12.414,0.000,0.000,34.265
13054,4.200,0.072,3.206,0.000,12.425,0.000,0.000,34.254
13175,4.195,0.000,3.208,0.000,12.433,0.000,0.000,34.242
13297,4.192,0.000,3.208,0.000,12.433,0.000,0.000,34.238
13419,4.191,0.000,3.208,0.000,12.433,0.000,0.000,34.240
13541,4.190,0.000,3.208,0.000,12.433,0.000,0.000,34.217
13663,4.189,0.000,3.208,0.000,12.433,0.000,0.000,34.268
13785,4.188,0.000,3.208,0.000,12.433,0.000,0.000,34.227
13907,4.188,0.000,3.208,0.000,12.433,0.000,0.000,34.261
14029,4.187,0.000,3.208,0.000,12.433,0.000,0.000,34.214
14151,4.187,0.000,3.208,0.000,12.433,0.000,0.000,34.223
14273,4.186,0.000,3.208,0.000,12.433,0.000,0.000,34.229
14395,4.186,0.000,3.208,0.000,12.433,0.000,0.000,34.225
14517,4.185,0.000,3.208,0.000,12.433,0.000,0.000,34.198
14639,4.185,0.000,3.208,0.000,12.433,0.000,0.000,34.177
14761,4.185,0.000,3.208,0.000,12.433,0.000,0.000,34.225
14883,4.184,0.000,3.208,0.000,12.433,0.000,0.000,34.219
15005,4.184,0.000,3.208,0.000,12.433,0.000,0.000,34.216
15127,4.184,0.000,3.208,0.000,12.433,0.000,0.000,34.221
15249,4.184,0.000,3.208,0.000,12.433,0.000,0.000,34.200
15371,4.183,0.000,3.208,0.000,12.433,0.000,0.000,34.210
15493,4.183,0.000,3.208,0.000,12.433,0.000,0.000,34.211
15615,4.183,0.000,3.208,0.000,12.433,0.000,0.000,34.224
15737,4.183,0.000,3.208,0.000,12.433,0.000,0.000,34.208
15859,4.183,0.000,3.208,0.000,12.433,0.000,0.000,34.191
15981,4.182,0.000,3.208,0.000,12.433,0.000,0.000,34.219
16103,4.182,0.000,3.208,0.000,12.433,0.000,0.000,34.217
16225,4.182,0.000,3.208,0.000,12.433,0.000,0.000,34.185
16347,4.182,0.000,3.208,0.000,12.433,0.000,0.000,34.191
16469,4.182,0.000,3.208,0.000,12.433,0.000,0.000,34.216
16591,4.182,0.000,3.208,0.000,12.433,0.000,0.000,34.195
16713,4.181,0.000,3.208,0.000,12.433,0.000,0.000,34.229
16834,3.631,-6.699,3.208,0.128,12.433,0.471,-0.001,35.987
16956,3.562,-6.699,3.208,0.355,12.433,1.287,0.000,39.024
17078,3.485,-6.699,3.208,0.582,12.433,2.087,-0.001,40.946
17200,3.408,-6.699,3.208,0.809,12.433,2.870,-0.001,42.193
17322,3.332,-6.700,3.208,1.036,12.433,3.635,-0.001,43.268
17444,3.258,-6.700,3.208,1.264,12.433,4.383,-0.001,44.361
17566,3.186,-6.700,3.208,1.491,12.433,5.115,-0.001,45.208
17688,3.119,-6.701,3.208,1.718,12.433,5.830,-0.001,45.836
17810,3.056,-6.701,3.208,1.945,12.433,6.531,0.000,46.887
17932,2.991,-6.701,3.208,2.172,12.433,7.218,-0.001,47.616
18054,2.919,-6.702,3.208,2.399,12.433,7.889,-0.001,48.409
18176,2.834,-6.702,3.208,2.626,12.433,8.543,-0.001,49.493
18298,2.728,-6.703,3.208,2.853,12.433,9.175,-0.001,50.505
18420,2.561,-6.704,3.208,3.080,12.433,9.778,-0.002,52.337
18542,3.285,0.000,3.208,3.130,12.433,9.903,0.001,49.228
18664,3.311,0.000,3.208,3.130,12.433,9.903,0.000,44.471
18786,3.318,0.000,3.208,3.130,12.433,9.903,0.000,41.499
18908,3.320,0.000,3.208,3.130,12.433,9.903,0.000,39.430
19030,3.321,0.000,3.208,3.130,12.433,9.903,0.000,38.030
19152,3.322,0.000,3.208,3.130,12.433,9.903,0.000,36.968
19274,3.322,0.000,3.208,3.130,12.433,9.903,0.000,36.287
19396,3.323,0.000,3.208,3.130,12.433,9.903,0.000,35.733
19518,3.323,0.000,3.208,3.130,12.433,9.903,0.000,35.353
19640,3.323,0.000,3.208,3.130,12.433,9.903,0.000,35.071
19762,3.323,0.000,3.208,3.130,12.433,9.903,0.000,34.907
19884,3.323,0.000,3.208,3.130,12.433,9.903,0.000,34.716
20006,3.323,0.000,3.208,3.130,12.433,9.903,0.000,34.597
20128,3.323,0.000,3.208,3.130,12.433,9.903,0.000,34.504
20250,3.323,0.000,3.208,3.130,12.433,9.903,0.000,34.499
20372,3.323,0.000,3.208,3.130,12.433,9.903,0.000,34.409
20494,3.323,0.000,3.208,3.130,12.433,9.903,0.000,34.376
20616,3.323,0.000,3.208,3.130,12.433,9.903,0.000,34.353
20738,3.323,0.000,3.208,3.130,12.433,9.903,0.000,34.343
20860,3.323,0.000,3.208,3.130,12.433,9.903,0.000,34.310
20982,3.323,0.000,3.208,3.130,12.433,9.903,0.000,34.281
21104,3.323,0.000,3.208,3.130,12.433,9.903,0.000,34.235
21226,3.323,0.000,3.208,3.130,12.433,9.903,0.000,34.228
21348,3.323,0.000,3.208,3.130,12.433,9.903,0.000,34.246
21470,3.324,0.000,3.208,3.130,12.433,9.903,0.000,34.245
21592,3.323,0.000,3.208,3.130,12.433,9.903,0.000,34.258
21714,3.324,0.000,3.208,3.130,12.433,9.903,0.000,34.226
21836,3.324,0.000,3.208,3.130,12.433,9.903,0.000,34.261
21958,3.324,0.000,3.208,3.130,12.433,9.903,0.000,34.282
22047,3.324,0.000,3.208,3.130,12.433,9.903,0.000,34.218