File: data/T35/2C/4.csv
time_s,voltage_v,current_a,chargecapacity_ah,dischargecapacity_ah,charge_energy_wh,discharge_energy_wh,voltagedot_v_per_s,temp_degc
1,3.167,0.000,0.000,0.000,0.000,0.000,0.000,34.613
124,3.167,0.000,0.000,0.000,0.000,0.000,0.000,34.623
247,3.167,0.000,0.000,0.000,0.000,0.000,0.000,34.599
370,3.167,0.000,0.000,0.000,0.000,0.000,0.000,34.599
493,3.167,0.000,0.000,0.000,0.000,0.000,0.000,34.602
616,3.167,0.000,0.000,0.000,0.000,0.000,0.000,34.632
739,3.167,0.000,0.000,0.000,0.000,0.000,0.000,34.624
862,3.167,0.000,0.000,0.000,0.000,0.000,0.000,34.636
985,3.167,0.000,0.000,0.000,0.000,0.000,0.000,34.604
1108,3.167,0.000,0.000,0.000,0.000,0.000,0.000,34.633
1231,3.167,0.000,0.000,0.000,0.000,0.000,0.000,34.620
1354,3.167,0.000,0.000,0.000,0.000,0.000,0.000,34.575
1477,3.168,0.000,0.000,0.000,0.000,0.000,0.000,34.582
1600,3.168,0.000,0.000,0.000,0.000,0.000,0.000,34.624
1723,3.168,0.000,0.000,0.000,0.000,0.000,0.000,34.633
1846,3.168,0.000,0.000,0.000,0.000,0.000,0.000,34.583
1969,3.168,0.000,0.000,0.000,0.000,0.000,0.000,34.652
2092,3.168,0.000,0.000,0.000,0.000,0.000,0.000,34.613
2215,3.168,0.000,0.000,0.000,0.000,0.000,0.000,34.604
2338,3.168,0.000,0.000,0.000,0.000,0.000,0.000,34.600
2461,3.168,0.000,0.000,0.000,0.000,0.000,0.000,34.603
2584,3.168,0.000,0.000,0.000,0.000,0.000,0.000,34.608
2707,3.168,0.000,0.000,0.000,0.000,0.000,0.000,34.626
2830,3.168,0.000,0.000,0.000,0.000,0.000,0.000,34.637
2953,3.168,0.000,0.000,0.000,0.000,0.000,0.000,34.607
3076,3.168,0.000,0.000,0.000,0.000,0.000,0.000,34.602
3199,3.169,0.000,0.000,0.000,0.000,0.000,0.000,34.609
3322,3.169,0.000,0.000,0.000,0.000,0.000,0.000,34.625
3445,3.169,0.000,0.000,0.000,0.000,0.000,0.000,34.620
3568,3.169,0.000,0.000,0.000,0.000,0.000,0.000,34.617
3690,3.431,1.625,0.041,0.000,0.137,0.000,0.001,34.612
3813,3.485,1.625,0.096,0.000,0.330,0.000,0.000,34.802
3936,3.496,1.625,0.152,0.000,0.524,0.000,0.000,35.110
4059,3.508,1.625,0.207,0.000,0.718,0.000,0.000,35.412
4182,3.521,1.625,0.263,0.000,0.913,0.000,0.000,35.658
4305,3.534,1.625,0.318,0.000,1.109,0.000,0.000,35.834
4428,3.547,1.625,0.374,0.000,1.306,0.000,0.000,36.006
4551,3.562,1.625,0.429,0.000,1.503,0.000,0.000,36.056
4674,3.578,1.625,0.485,0.000,1.701,0.000,0.000,36.069
4797,3.593,1.625,0.540,0.000,1.900,0.000,0.000,36.025
4920,3.607,1.625,0.596,0.000,2.100,0.000,0.000,36.010
5043,3.619,1.625,0.651,0.000,2.301,0.000,0.000,36.017
5166,3.630,1.625,0.707,0.000,2.502,0.000,0.000,35.982
5289,3.641,1.625,0.763,0.000,2.704,0.000,0.000,36.026
5412,3.653,1.625,0.818,0.000,2.907,0.000,0.000,36.027
5535,3.665,1.625,0.874,0.000,3.110,0.000,0.000,36.038
5658,3.676,1.625,0.929,0.000,3.314,0.000,0.000,36.106
5781,3.688,1.625,0.985,0.000,3.518,0.000,0.000,36.154
5904,3.699,1.625,1.040,0.000,3.723,0.000,0.000,36.234
6027,3.711,1.625,1.096,0.000,3.929,0.000,0.000,36.273
6150,3.721,1.625,1.151,0.000,4.135,0.000,0.000,36.292
6273,3.731,1.625,1.207,0.000,4.342,0.000,0.000,36.356
6396,3.742,1.625,1.262,0.000,4.550,0.000,0.000,36.411
6519,3.752,1.625,1.318,0.000,4.758,0.000,0.000,36.460
6642,3.762,1.625,1.373,0.000,4.966,0.000,0.000,36.530
6765,3.773,1.625,1.429,0.000,5.176,0.000,0.000,36.481
6888,3.785,1.625,1.484,0.000,5.386,0.000,0.000,36.529
7011,3.797,1.625,1.540,0.000,5.596,0.000,0.000,36.501
7134,3.810,1.625,1.595,0.000,5.807,0.000,0.000,36.551
7257,3.824,1.625,1.651,0.000,6.019,0.000,0.000,36.560
7380,3.838,1.625,1.707,0.000,6.232,0.000,0.000,36.563
7503,3.853,1.625,1.762,0.000,6.446,0.000,0.000,36.571
7626,3.869,1.625,1.818,0.000,6.660,0.000,0.000,36.558
7749,3.884,1.625,1.873,0.000,6.875,0.000,0.000,36.580
7872,3.900,1.625,1.929,0.000,7.091,0.000,0.000,36.551
7995,3.916,1.625,1.984,0.000,7.308,0.000,0.000,36.581
8118,3.932,1.625,2.040,0.000,7.526,0.000,0.000,36.554
8241,3.948,1.625,2.095,0.000,7.745,0.000,0.000,36.544
8364,3.963,1.625,2.151,0.000,7.965,0.000,0.000,36.546
8487,3.979,1.625,2.206,0.000,8.185,0.000,0.000,36.537
8610,3.994,1.625,2.262,0.000,8.407,0.000,0.000,36.537
8733,4.009,1.625,2.317,0.000,8.629,0.000,0.000,36.507
8856,4.025,1.625,2.373,0.000,8.852,0.000,0.000,36.480
8979,4.041,1.625,2.428,0.000,9.076,0.000,0.000,36.503
9102,4.058,1.625,2.484,0.000,9.301,0.000,0.000,36.535
9225,4.076,1.625,2.539,0.000,9.526,0.000,0.000,36.533
9348,4.095,1.625,2.595,0.000,9.753,0.000,0.000,36.572
9471,4.115,1.625,2.651,0.000,9.981,0.000,0.000,36.652
9594,4.137,1.625,2.706,0.000,10.210,0.000,0.000,36.664
9717,4.159,1.625,2.762,0.000,10.441,0.000,0.000,36.633
9840,4.181,1.625,2.817,0.000,10.672,0.000,0.000,36.746
9963,4.200,1.559,2.872,0.000,10.903,0.000,0.000,36.778
10086,4.200,1.329,2.921,0.000,11.109,0.000,0.000,36.742
10209,4.200,1.171,2.964,0.000,11.288,0.000,0.000,36.597
10332,4.200,1.042,3.001,0.000,11.446,0.000,0.000,36.435
10455,4.200,0.933,3.035,0.000,11.588,0.000,0.000,36.327
10578,4.200,0.837,3.065,0.000,11.714,0.000,0.000,36.107
10701,4.200,0.752,3.093,0.000,11.828,0.000,0.000,35.965
10824,4.200,0.673,3.117,0.000,11.931,0.000,0.000,35.792
10947,4.200,0.601,3.139,0.000,12.022,0.000,0.000,35.643
11070,4.200,0.534,3.158,0.000,12.103,0.000,0.000,35.526
11193,4.200,0.471,3.175,0.000,12.175,0.000,0.000,35.443
11316,4.200,0.415,3.190,0.000,12.239,0.000,0.000,35.307
11439,4.200,0.364,3.204,0.000,12.295,0.000,0.000,35.219
11562,4.200,0.319,3.215,0.000,12.344,0.000,0.000,35.135
11685,4.200,0.280,3.225,0.000,12.387,0.000,0.000,35.054
11808,4.200,0.244,3.234,0.000,12.424,0.000,0.000,35.015
11931,4.200,0.213,3.242,0.000,12.457,0.000,0.000,34.945
12054,4.200,0.186,3.249,0.000,12.485,0.000,0.000,34.866
12177,4.200,0.162,3.255,0.000,12.510,0.000,0.000,34.878
12300,4.200,0.142,3.260,0.000,12.532,0.000,0.000,34.848
12423,4.200,0.125,3.265,0.000,12.551,0.000,0.000,34.833
12546,4.200,0.110,3.269,0.000,12.568,0.000,0.000,34.773
12669,4.200,0.098,3.272,0.000,12.583,0.000,0.000,34.712
12792,4.200,0.086,3.275,0.000,12.596,0.000,0.000,34.689
12915,4.200,0.077,3.278,0.000,12.608,0.000,0.000,34.701
13038,4.200,0.068,3.281,0.000,12.618,0.000,0.000,34.681
13160,4.195,0.000,3.281,0.000,12.622,0.000,0.000,34.653
13283,4.193,0.000,3.281,0.000,12.622,0.000,0.000,34.650
13406,4.191,0.000,3.281,0.000,12.622,0.000,0.000,34.657
13529,4.190,0.000,3.281,0.000,12.622,0.000,0.000,34.650
13652,4.190,0.000,3.281,0.000,12.622,0.000,0.000,34.641
13775,4.189,0.000,3.281,0.000,12.622,0.000,0.000,34.660
13898,4.188,0.000,3.281,0.000,12.622,0.000,0.000,34.628
14021,4.188,0.000,3.281,0.000,12.622,0.000,0.000,34.589
14144,4.187,0.000,3.281,0.000,12.622,0.000,0.000,34.634
14267,4.187,0.000,3.281,0.000,12.622,0.000,0.000,34.636
14390,4.186,0.000,3.281,0.000,12.622,0.000,0.000,34.646
14513,4.186,0.000,3.281,0.000,12.622,0.000,0.000,34.619
14636,4.185,0.000,3.281,0.000,12.622,0.000,0.000,34.620
14759,4.185,0.000,3.281,0.000,12.622,0.000,0.000,34.634
14882,4.185,0.000,3.281,0.000,12.622,0.000,0.000,34.560
15005,4.185,0.000,3.281,0.000,12.622,0.000,0.000,34.650
15128,4.184,0.000,3.281,0.000,12.622,0.000,0.000,34.619
15251,4.184,0.000,3.281,0.000,12.622,0.000,0.000,34.628
15374,4.184,0.000,3.281,0.000,12.622,0.000,0.000,34.668
15497,4.183,0.000,3.281,0.000,12.622,0.000,0.000,34.608
15620,4.183,0.000,3.281,0.000,12.622,0.000,0.000,34.593
15743,4.183,0.000,3.281,0.000,12.622,0.000,0.000,34.592
15866,4.183,0.000,3.281,0.000,12.622,0.000,0.000,34.609
15989,4.183,0.000,3.281,0.000,12.622,0.000,0.000,34.602
16112,4.182,0.000,3.281,0.000,12.622,0.000,0.000,34.605
16235,4.182,0.000,3.281,0.000,12.622,0.000,0.000,34.597
16358,4.182,0.000,3.281,0.000,12.622,0.000,0.000,34.642
16481,4.182,0.000,3.281,0.000,12.622,0.000,0.000,34.623
16604,4.182,0.000,3.281,0.000,12.622,0.000,0.000,34.581
16726,3.764,-6.702,3.281,0.082,12.622,0.311,-0.001,35.585
16849,3.685,-6.699,3.281,0.311,12.622,1.163,-0.001,39.043
16972,3.606,-6.698,3.281,0.540,12.622,1.998,-0.001,41.651
17095,3.528,-6.696,3.281,0.769,12.622,2.814,-0.001,43.693
17218,3.454,-6.698,3.281,0.997,12.622,3.613,-0.001,45.419
17341,3.379,-6.696,3.281,1.226,12.622,4.394,-0.001,47.012
17464,3.307,-6.700,3.281,1.455,12.622,5.159,-0.001,48.271
17587,3.241,-6.699,3.281,1.684,12.622,5.908,0.000,49.389
17710,3.182,-6.698,3.281,1.913,12.622,6.643,0.000,50.517
17833,3.125,-6.697,3.281,2.142,12.622,7.365,0.000,51.502
17956,3.063,-6.696,3.281,2.370,12.622,8.073,-0.001,52.637
18079,2.993,-6.696,3.281,2.599,12.622,8.766,-0.001,53.608
18202,2.913,-6.696,3.281,2.828,12.622,9.442,-0.001,54.544
18325,2.810,-6.697,3.281,3.057,12.622,10.097,-0.001,55.783
18448,2.989,0.000,3.281,3.268,12.622,10.669,0.006,57.736
18571,3.125,0.000,3.281,3.268,12.622,10.669,0.000,53.060
18694,3.136,0.000,3.281,3.268,12.622,10.669,0.000,48.688
18817,3.142,0.000,3.281,3.268,12.622,10.669,0.000,45.348
18940,3.147,0.000,3.281,3.268,12.622,10.669,0.000,42.823
19063,3.150,0.000,3.281,3.268,12.622,10.669,0.000,40.850
19186,3.153,0.000,3.281,3.268,12.622,10.669,0.000,39.406
19309,3.155,0.000,3.281,3.268,12.622,10.669,0.000,38.307
19432,3.156,0.000,3.281,3.268,12.622,10.669,0.000,37.498
19555,3.157,0.000,3.281,3.268,12.622,10.669,0.000,36.769
19678,3.159,0.000,3.281,3.268,12.622,10.669,0.000,36.259
19801,3.159,0.000,3.281,3.268,12.622,10.669,0.000,35.870
19924,3.160,0.000,3.281,3.268,12.622,10.669,0.000,35.571
20047,3.161,0.000,3.281,3.268,12.622,10.669,0.000,35.353
20170,3.162,0.000,3.281,3.268,12.622,10.669,0.000,35.184
20293,3.162,0.000,3.281,3.268,12.622,10.669,0.000,35.020
20416,3.163,0.000,3.281,3.268,12.622,10.669,0.000,34.971
20539,3.163,0.000,3.281,3.268,12.622,10.669,0.000,34.856
20662,3.164,0.000,3.281,3.268,12.622,10.669,0.000,34.830
20785,3.164,0.000,3.281,3.268,12.622,10.669,0.000,34.780
20908,3.165,0.000,3.281,3.268,12.622,10.669,0.000,34.740
21031,3.165,0.000,3.281,3.268,12.622,10.669,0.000,34.692
21154,3.166,0.000,3.281,3.268,12.622,10.669,0.000,34.678
21277,3.166,0.000,3.281,3.268,12.622,10.669,0.000,34.670
21400,3.166,0.000,3.281,3.268,12.622,10.669,0.000,34.620
21523,3.167,0.000,3.281,3.268,12.622,10.669,0.000,34.664
21646,3.167,0.000,3.281,3.268,12.622,10.669,0.000,34.611
21769,3.167,0.000,3.281,3.268,12.622,10.669,0.000,34.660
21892,3.168,0.000,3.281,3.268,12.622,10.669,0.000,34.635
22015,3.168,0.000,3.281,3.268,12.622,10.669,0.000,34.607
22039,3.168,0.000,3.281,3.268,12.622,10.669,0.000,34.617