File: data/T35/2C/5.csv
time_s,voltage_v,current_a,chargecapacity_ah,dischargecapacity_ah,charge_energy_wh,discharge_energy_wh,voltagedot_v_per_s,temp_degc
1,3.178,0.000,0.000,0.000,0.000,0.000,0.000,34.247
123,3.178,0.000,0.000,0.000,0.000,0.000,0.000,34.190
245,3.178,0.000,0.000,0.000,0.000,0.000,0.000,34.206
367,3.178,0.000,0.000,0.000,0.000,0.000,0.000,34.204
489,3.178,0.000,0.000,0.000,0.000,0.000,0.000,34.220
611,3.178,0.000,0.000,0.000,0.000,0.000,0.000,34.236
733,3.178,0.000,0.000,0.000,0.000,0.000,0.000,34.263
855,3.178,0.000,0.000,0.000,0.000,0.000,0.000,34.219
977,3.178,0.000,0.000,0.000,0.000,0.000,0.000,34.220
1099,3.178,0.000,0.000,0.000,0.000,0.000,0.000,34.219
1221,3.179,0.000,0.000,0.000,0.000,0.000,0.000,34.232
1343,3.179,0.000,0.000,0.000,0.000,0.000,0.000,34.206
1465,3.179,0.000,0.000,0.000,0.000,0.000,0.000,34.193
1587,3.179,0.000,0.000,0.000,0.000,0.000,0.000,34.236
1709,3.179,0.000,0.000,0.000,0.000,0.000,0.000,34.207
1831,3.179,0.000,0.000,0.000,0.000,0.000,0.000,34.248
1953,3.179,0.000,0.000,0.000,0.000,0.000,0.000,34.245
2075,3.179,0.000,0.000,0.000,0.000,0.000,0.000,34.209
2197,3.179,0.000,0.000,0.000,0.000,0.000,0.000,34.216
2319,3.179,0.000,0.000,0.000,0.000,0.000,0.000,34.221
2441,3.179,0.000,0.000,0.000,0.000,0.000,0.000,34.249
2563,3.179,0.000,0.000,0.000,0.000,0.000,0.000,34.259
2685,3.179,0.000,0.000,0.000,0.000,0.000,0.000,34.226
2807,3.180,0.000,0.000,0.000,0.000,0.000,0.000,34.234
2929,3.180,0.000,0.000,0.000,0.000,0.000,0.000,34.244
3051,3.180,0.000,0.000,0.000,0.000,0.000,0.000,34.247
3173,3.180,0.000,0.000,0.000,0.000,0.000,0.000,34.194
3295,3.180,0.000,0.000,0.000,0.000,0.000,0.000,34.234
3417,3.180,0.000,0.000,0.000,0.000,0.000,0.000,34.249
3539,3.180,0.000,0.000,0.000,0.000,0.000,0.000,34.208
3660,3.421,1.625,0.027,0.000,0.092,0.000,0.001,34.184
3782,3.488,1.625,0.082,0.000,0.282,0.000,0.000,34.416
3904,3.497,1.625,0.137,0.000,0.475,0.000,0.000,34.766
4026,3.509,1.625,0.192,0.000,0.668,0.000,0.000,35.033
4148,3.522,1.625,0.247,0.000,0.861,0.000,0.000,35.318
4270,3.535,1.625,0.302,0.000,1.056,0.000,0.000,35.572
4392,3.548,1.625,0.358,0.000,1.251,0.000,0.000,35.661
4514,3.562,1.625,0.413,0.000,1.447,0.000,0.000,35.814
4636,3.579,1.625,0.468,0.000,1.643,0.000,0.000,35.862
4758,3.594,1.625,0.523,0.000,1.841,0.000,0.000,35.866
4880,3.608,1.625,0.578,0.000,2.039,0.000,0.000,35.802
5002,3.620,1.625,0.633,0.000,2.238,0.000,0.000,35.784
5124,3.631,1.625,0.688,0.000,2.438,0.000,0.000,35.792
5246,3.642,1.625,0.743,0.000,2.638,0.000,0.000,35.830
5368,3.653,1.625,0.798,0.000,2.839,0.000,0.000,35.862
5490,3.664,1.625,0.853,0.000,3.041,0.000,0.000,35.875
5612,3.675,1.625,0.908,0.000,3.243,0.000,0.000,35.950
5734,3.687,1.625,0.963,0.000,3.445,0.000,0.000,35.968
5856,3.698,1.625,1.018,0.000,3.649,0.000,0.000,36.061
5978,3.709,1.625,1.074,0.000,3.853,0.000,0.000,36.111
6100,3.719,1.625,1.129,0.000,4.057,0.000,0.000,36.155
6222,3.730,1.625,1.184,0.000,4.262,0.000,0.000,36.263
6344,3.740,1.625,1.239,0.000,4.468,0.000,0.000,36.309
6466,3.750,1.625,1.294,0.000,4.674,0.000,0.000,36.351
6588,3.760,1.625,1.349,0.000,4.881,0.000,0.000,36.384
6710,3.771,1.625,1.404,0.000,5.089,0.000,0.000,36.336
6832,3.782,1.625,1.459,0.000,5.297,0.000,0.000,36.422
6954,3.794,1.625,1.514,0.000,5.505,0.000,0.000,36.410
7076,3.806,1.625,1.569,0.000,5.714,0.000,0.000,36.412
7198,3.819,1.625,1.624,0.000,5.924,0.000,0.000,36.441
7320,3.833,1.625,1.679,0.000,6.135,0.000,0.000,36.474
7442,3.848,1.625,1.735,0.000,6.347,0.000,0.000,36.455
7564,3.863,1.625,1.790,0.000,6.559,0.000,0.000,36.467
7686,3.878,1.625,1.845,0.000,6.772,0.000,0.000,36.465
7808,3.894,1.625,1.900,0.000,6.986,0.000,0.000,36.516
7930,3.909,1.625,1.955,0.000,7.201,0.000,0.000,36.443
8052,3.925,1.625,2.010,0.000,7.417,0.000,0.000,36.441
8174,3.941,1.625,2.065,0.000,7.634,0.000,0.000,36.439
8296,3.956,1.625,2.120,0.000,7.851,0.000,0.000,36.423
8418,3.972,1.625,2.175,0.000,8.069,0.000,0.000,36.402
8540,3.987,1.625,2.230,0.000,8.289,0.000,0.000,36.342
8662,4.002,1.625,2.285,0.000,8.509,0.000,0.000,36.363
8784,4.018,1.625,2.340,0.000,8.729,0.000,0.000,36.338
8906,4.033,1.625,2.395,0.000,8.951,0.000,0.000,36.265
9028,4.050,1.625,2.451,0.000,9.174,0.000,0.000,36.350
9150,4.067,1.625,2.506,0.000,9.397,0.000,0.000,36.349
9272,4.086,1.625,2.561,0.000,9.622,0.000,0.000,36.349
9394,4.105,1.625,2.616,0.000,9.847,0.000,0.000,36.452
9516,4.126,1.625,2.671,0.000,10.074,0.000,0.000,36.503
9638,4.148,1.625,2.726,0.000,10.302,0.000,0.000,36.513
9760,4.170,1.625,2.781,0.000,10.531,0.000,0.000,36.532
9882,4.192,1.625,2.836,0.000,10.761,0.000,0.000,36.590
10003,4.200,1.438,2.889,0.000,10.981,0.000,0.000,36.585
10125,4.200,1.257,2.934,0.000,11.173,0.000,0.000,36.525
10247,4.200,1.118,2.974,0.000,11.341,0.000,0.000,36.403
10369,4.200,1.000,3.010,0.000,11.491,0.000,0.000,36.198
10491,4.200,0.897,3.042,0.000,11.626,0.000,0.000,36.056
10613,4.200,0.806,3.071,0.000,11.747,0.000,0.000,35.950
10735,4.200,0.722,3.097,0.000,11.856,0.000,0.000,35.708
10857,4.200,0.644,3.120,0.000,11.953,0.000,0.000,35.543
10979,4.200,0.571,3.140,0.000,12.039,0.000,0.000,35.392
11101,4.200,0.504,3.159,0.000,12.116,0.000,0.000,35.248
11223,4.200,0.444,3.175,0.000,12.183,0.000,0.000,35.135
11345,4.200,0.389,3.189,0.000,12.243,0.000,0.000,35.057
11467,4.200,0.340,3.201,0.000,12.294,0.000,0.000,34.931
11589,4.200,0.297,3.212,0.000,12.340,0.000,0.000,34.840
11711,4.200,0.258,3.221,0.000,12.379,0.000,0.000,34.749
11833,4.200,0.225,3.229,0.000,12.413,0.000,0.000,34.620
11955,4.200,0.195,3.237,0.000,12.443,0.000,0.000,34.630
12077,4.200,0.170,3.243,0.000,12.469,0.000,0.000,34.561
12199,4.200,0.148,3.248,0.000,12.492,0.000,0.000,34.529
12321,4.200,0.129,3.253,0.000,12.511,0.000,0.000,34.496
12443,4.200,0.114,3.257,0.000,12.529,0.000,0.000,34.462
12565,4.200,0.100,3.261,0.000,12.544,0.000,0.000,34.452
12687,4.200,0.088,3.264,0.000,12.557,0.000,0.000,34.387
12809,4.200,0.078,3.267,0.000,12.569,0.000,0.000,34.369
12931,4.200,0.069,3.269,0.000,12.579,0.000,0.000,34.375
13052,4.195,0.000,3.270,0.000,12.584,0.000,0.000,34.353
13174,4.193,0.000,3.270,0.000,12.584,0.000,0.000,34.356
13296,4.192,0.000,3.270,0.000,12.584,0.000,0.000,34.317
13418,4.191,0.000,3.270,0.000,12.584,0.000,0.000,34.306
13540,4.190,0.000,3.270,0.000,12.584,0.000,0.000,34.272
13662,4.189,0.000,3.270,0.000,12.584,0.000,0.000,34.254
13784,4.188,0.000,3.270,0.000,12.584,0.000,0.000,34.289
13906,4.188,0.000,3.270,0.000,12.584,0.000,0.000,34.273
14028,4.187,0.000,3.270,0.000,12.584,0.000,0.000,34.272
14150,4.187,0.000,3.270,0.000,12.584,0.000,0.000,34.251
14272,4.186,0.000,3.270,0.000,12.584,0.000,0.000,34.277
14394,4.186,0.000,3.270,0.000,12.584,0.000,0.000,34.263
14516,4.186,0.000,3.270,0.000,12.584,0.000,0.000,34.228
14638,4.185,0.000,3.270,0.000,12.584,0.000,0.000,34.266
14760,4.185,0.000,3.270,0.000,12.584,0.000,0.000,34.245
14882,4.185,0.000,3.270,0.000,12.584,0.000,0.000,34.229
15004,4.184,0.000,3.270,0.000,12.584,0.000,0.000,34.234
15126,4.184,0.000,3.270,0.000,12.584,0.000,0.000,34.247
15248,4.184,0.000,3.270,0.000,12.584,0.000,0.000,34.282
15370,4.184,0.000,3.270,0.000,12.584,0.000,0.000,34.257
15492,4.183,0.000,3.270,0.000,12.584,0.000,0.000,34.268
15614,4.183,0.000,3.270,0.000,12.584,0.000,0.000,34.212
15736,4.183,0.000,3.270,0.000,12.584,0.000,0.000,34.232
15858,4.183,0.000,3.270,0.000,12.584,0.000,0.000,34.258
15980,4.183,0.000,3.270,0.000,12.584,0.000,0.000,34.218
16102,4.183,0.000,3.270,0.000,12.584,0.000,0.000,34.217
16224,4.182,0.000,3.270,0.000,12.584,0.000,0.000,34.220
16346,4.182,0.000,3.270,0.000,12.584,0.000,0.000,34.259
16468,4.182,0.000,3.270,0.000,12.584,0.000,0.000,34.253
16590,4.182,0.000,3.270,0.000,12.584,0.000,0.000,34.254
16712,3.708,-6.704,3.270,0.216,12.584,0.811,-0.001,37.304
16834,3.637,-6.701,3.270,0.443,12.584,1.645,-0.001,40.603
16956,3.560,-6.701,3.270,0.670,12.584,2.463,-0.001,43.237
17078,3.488,-6.701,3.270,0.897,12.584,3.263,-0.001,45.237
17200,3.415,-6.701,3.270,1.124,12.584,4.047,-0.001,46.992
17322,3.342,-6.701,3.270,1.351,12.584,4.814,0.000,48.745
17444,3.275,-6.701,3.270,1.579,12.584,5.565,-0.001,49.994
17566,3.215,-6.701,3.270,1.806,12.584,6.302,-0.001,51.116
17688,3.160,-6.700,3.270,2.033,12.584,7.025,-0.001,52.428
17810,3.104,-6.701,3.270,2.260,12.584,7.737,0.000,53.652
17932,3.041,-6.700,3.270,2.487,12.584,8.434,-0.001,54.457
18054,2.968,-6.700,3.270,2.714,12.584,9.117,-0.001,55.651
18176,2.884,-6.700,3.270,2.941,12.584,9.782,-0.001,56.483
18298,2.740,-6.699,3.270,3.168,12.584,10.423,-0.002,57.710
18420,3.083,0.000,3.270,3.274,12.584,10.704,0.000,57.834
18542,3.107,0.000,3.270,3.274,12.584,10.704,0.000,52.771
18664,3.115,0.000,3.270,3.274,12.584,10.704,0.000,48.749
18786,3.120,0.000,3.270,3.274,12.584,10.704,0.000,45.526
18908,3.124,0.000,3.270,3.274,12.584,10.704,0.000,42.995
19030,3.127,0.000,3.270,3.274,12.584,10.704,0.000,41.173
19152,3.130,0.000,3.270,3.274,12.584,10.704,0.000,39.610
19274,3.132,0.000,3.270,3.274,12.584,10.704,0.000,38.521
19396,3.133,0.000,3.270,3.274,12.584,10.704,0.000,37.541
19518,3.135,0.000,3.270,3.274,12.584,10.704,0.000,36.873
19640,3.136,0.000,3.270,3.274,12.584,10.704,0.000,36.285
19762,3.137,0.000,3.270,3.274,12.584,10.704,0.000,35.827
19884,3.138,0.000,3.270,3.274,12.584,10.704,0.000,35.486
20006,3.139,0.000,3.270,3.274,12.584,10.704,0.000,35.241
20128,3.139,0.000,3.270,3.274,12.584,10.704,0.000,34.950
20250,3.140,0.000,3.270,3.274,12.584,10.704,0.000,34.805
20372,3.141,0.000,3.270,3.274,12.584,10.704,0.000,34.735
20494,3.141,0.000,3.270,3.274,12.584,10.704,0.000,34.636
20616,3.142,0.000,3.270,3.274,12.584,10.704,0.000,34.535
20738,3.142,0.000,3.270,3.274,12.584,10.704,0.000,34.494
20860,3.143,0.000,3.270,3.274,12.584,10.704,0.000,34.441
20982,3.143,0.000,3.270,3.274,12.584,10.704,0.000,34.389
21104,3.143,0.000,3.270,3.274,12.584,10.704,0.000,34.355
21226,3.144,0.000,3.270,3.274,12.584,10.704,0.000,34.298
21348,3.144,0.000,3.270,3.274,12.584,10.704,0.000,34.304
21470,3.145,0.000,3.270,3.274,12.584,10.704,0.000,34.294
21592,3.145,0.000,3.270,3.274,12.584,10.704,0.000,34.315
21714,3.145,0.000,3.270,3.274,12.584,10.704,0.000,34.251
21836,3.146,0.000,3.270,3.274,12.584,10.704,0.000,34.289
21955,3.146,0.000,3.270,3.274,12.584,10.704,0.000,34.241