File: data/T35/2C/6.csv
time_s,voltage_v,current_a,chargecapacity_ah,dischargecapacity_ah,charge_energy_wh,discharge_energy_wh,voltagedot_v_per_s,temp_degc
1,3.369,0.000,0.000,0.000,0.000,0.000,0.000,34.445
121,3.369,0.000,0.000,0.000,0.000,0.000,0.000,34.456
241,3.369,0.000,0.000,0.000,0.000,0.000,0.000,34.418
361,3.369,0.000,0.000,0.000,0.000,0.000,0.000,34.466
481,3.369,0.000,0.000,0.000,0.000,0.000,0.000,34.458
601,3.369,0.000,0.000,0.000,0.000,0.000,0.000,34.432
721,3.369,0.000,0.000,0.000,0.000,0.000,0.000,34.455
841,3.369,0.000,0.000,0.000,0.000,0.000,0.000,34.447
961,3.369,0.000,0.000,0.000,0.000,0.000,0.000,34.480
1081,3.369,0.000,0.000,0.000,0.000,0.000,0.000,34.450
1201,3.369,0.000,0.000,0.000,0.000,0.000,0.000,34.440
1321,3.369,0.000,0.000,0.000,0.000,0.000,0.000,34.520
1441,3.369,0.000,0.000,0.000,0.000,0.000,0.000,34.469
1561,3.369,0.000,0.000,0.000,0.000,0.000,0.000,34.444
1681,3.369,0.000,0.000,0.000,0.000,0.000,0.000,34.488
1801,3.369,0.000,0.000,0.000,0.000,0.000,0.000,34.469
1921,3.369,0.000,0.000,0.000,0.000,0.000,0.000,34.463
2041,3.369,0.000,0.000,0.000,0.000,0.000,0.000,34.451
2161,3.369,0.000,0.000,0.000,0.000,0.000,0.000,34.494
2281,3.369,0.000,0.000,0.000,0.000,0.000,0.000,34.471
2401,3.369,0.000,0.000,0.000,0.000,0.000,0.000,34.443
2521,3.369,0.000,0.000,0.000,0.000,0.000,0.000,34.500
2641,3.369,0.000,0.000,0.000,0.000,0.000,0.000,34.474
2761,3.369,0.000,0.000,0.000,0.000,0.000,0.000,34.524
2881,3.369,0.000,0.000,0.000,0.000,0.000,0.000,34.461
3001,3.369,0.000,0.000,0.000,0.000,0.000,0.000,34.427
3121,3.369,0.000,0.000,0.000,0.000,0.000,0.000,34.456
3241,3.369,0.000,0.000,0.000,0.000,0.000,0.000,34.439
3361,3.369,0.000,0.000,0.000,0.000,0.000,0.000,34.468
3481,3.369,0.000,0.000,0.000,0.000,0.000,0.000,34.438
3600,3.369,0.000,0.000,0.000,0.000,0.000,0.000,34.466
3720,3.569,1.625,0.054,0.000,0.192,0.000,0.000,34.849
3840,3.595,1.625,0.108,0.000,0.386,0.000,0.000,35.065
3960,3.617,1.625,0.163,0.000,0.582,0.000,0.000,35.273
4080,3.636,1.625,0.217,0.000,0.778,0.000,0.000,35.399
4200,3.652,1.625,0.271,0.000,0.976,0.000,0.000,35.531
4320,3.665,1.625,0.325,0.000,1.174,0.000,0.000,35.638
4440,3.677,1.625,0.379,0.000,1.373,0.000,0.000,35.740
4560,3.688,1.625,0.433,0.000,1.572,0.000,0.000,35.893
4680,3.700,1.625,0.488,0.000,1.772,0.000,0.000,35.996
4800,3.711,1.625,0.542,0.000,1.973,0.000,0.000,36.075
4920,3.723,1.625,0.596,0.000,2.175,0.000,0.000,36.192
5040,3.734,1.625,0.650,0.000,2.377,0.000,0.000,36.292
5160,3.746,1.625,0.704,0.000,2.579,0.000,0.000,36.422
5280,3.757,1.625,0.759,0.000,2.783,0.000,0.000,36.470
5400,3.767,1.625,0.813,0.000,2.986,0.000,0.000,36.601
5520,3.777,1.625,0.867,0.000,3.191,0.000,0.000,36.665
5640,3.787,1.625,0.921,0.000,3.396,0.000,0.000,36.720
5760,3.797,1.625,0.975,0.000,3.601,0.000,0.000,36.780
5880,3.808,1.625,1.029,0.000,3.807,0.000,0.000,36.856
6000,3.819,1.625,1.084,0.000,4.014,0.000,0.000,36.943
6120,3.830,1.625,1.138,0.000,4.221,0.000,0.000,36.951
6240,3.842,1.625,1.192,0.000,4.429,0.000,0.000,37.050
6360,3.855,1.625,1.246,0.000,4.637,0.000,0.000,37.004
6480,3.868,1.625,1.300,0.000,4.846,0.000,0.000,37.057
6600,3.883,1.625,1.354,0.000,5.056,0.000,0.000,37.106
6720,3.897,1.625,1.409,0.000,5.267,0.000,0.000,37.124
6840,3.913,1.625,1.463,0.000,5.479,0.000,0.000,37.108
6960,3.928,1.625,1.517,0.000,5.691,0.000,0.000,37.168
7080,3.944,1.625,1.571,0.000,5.904,0.000,0.000,37.097
7200,3.960,1.625,1.625,0.000,6.119,0.000,0.000,37.123
7320,3.976,1.625,1.680,0.000,6.334,0.000,0.000,37.138
7440,3.992,1.625,1.734,0.000,6.549,0.000,0.000,37.164
7560,4.008,1.625,1.788,0.000,6.766,0.000,0.000,37.148
7680,4.023,1.625,1.842,0.000,6.984,0.000,0.000,37.136
7800,4.039,1.625,1.896,0.000,7.202,0.000,0.000,37.037
7920,4.054,1.625,1.950,0.000,7.421,0.000,0.000,37.084
8040,4.070,1.625,2.005,0.000,7.641,0.000,0.000,37.078
8160,4.086,1.625,2.059,0.000,7.862,0.000,0.000,37.136
8280,4.102,1.625,2.113,0.000,8.084,0.000,0.000,37.075
8400,4.120,1.625,2.167,0.000,8.307,0.000,0.000,37.075
8520,4.139,1.625,2.221,0.000,8.531,0.000,0.000,37.115
8640,4.159,1.625,2.276,0.000,8.755,0.000,0.000,37.123
8760,4.180,1.625,2.330,0.000,8.981,0.000,0.000,37.224
8880,4.200,1.607,2.384,0.000,9.208,0.000,0.000,37.255
9000,4.200,1.410,2.434,0.000,9.418,0.000,0.000,37.280
9120,4.200,1.261,2.478,0.000,9.604,0.000,0.000,37.172
9240,4.200,1.134,2.518,0.000,9.772,0.000,0.000,37.001
9360,4.200,1.027,2.554,0.000,9.923,0.000,0.000,36.825
9480,4.200,0.936,2.587,0.000,10.060,0.000,0.000,36.655
9600,4.200,0.857,2.617,0.000,10.185,0.000,0.000,36.487
9720,4.200,0.790,2.644,0.000,10.301,0.000,0.000,36.325
9840,4.200,0.730,2.669,0.000,10.407,0.000,0.000,36.122
9960,4.200,0.674,2.693,0.000,10.505,0.000,0.000,36.004
10080,4.200,0.623,2.714,0.000,10.596,0.000,0.000,35.814
10200,4.200,0.575,2.734,0.000,10.680,0.000,0.000,35.693
10320,4.200,0.529,2.753,0.000,10.757,0.000,0.000,35.577
10440,4.200,0.486,2.769,0.000,10.828,0.000,0.000,35.513
10560,4.200,0.444,2.785,0.000,10.893,0.000,0.000,35.387
10680,4.200,0.406,2.799,0.000,10.952,0.000,0.000,35.295
10800,4.200,0.369,2.812,0.000,11.007,0.000,0.000,35.228
10920,4.200,0.335,2.824,0.000,11.056,0.000,0.000,35.083
11040,4.200,0.303,2.834,0.000,11.100,0.000,0.000,35.072
11160,4.200,0.274,2.844,0.000,11.141,0.000,0.000,35.037
11280,4.200,0.246,2.853,0.000,11.177,0.000,0.000,34.936
11400,4.200,0.221,2.860,0.000,11.210,0.000,0.000,34.924
11520,4.200,0.199,2.867,0.000,11.239,0.000,0.000,34.858
11640,4.200,0.179,2.874,0.000,11.265,0.000,0.000,34.794
11760,4.200,0.160,2.879,0.000,11.289,0.000,0.000,34.792
11880,4.200,0.144,2.884,0.000,11.310,0.000,0.000,34.735
12000,4.200,0.129,2.889,0.000,11.329,0.000,0.000,34.678
12120,4.200,0.116,2.893,0.000,11.347,0.000,0.000,34.703
12240,4.200,0.104,2.897,0.000,11.362,0.000,0.000,34.644
12360,4.200,0.094,2.900,0.000,11.376,0.000,0.000,34.634
12480,4.200,0.085,2.903,0.000,11.388,0.000,0.000,34.635
12600,4.200,0.077,2.906,0.000,11.400,0.000,0.000,34.651
12720,4.200,0.070,2.908,0.000,11.410,0.000,0.000,34.613
12839,4.193,0.000,2.910,0.000,11.416,0.000,0.000,34.568
12959,4.191,0.000,2.910,0.000,11.416,0.000,0.000,34.585
13079,4.190,0.000,2.910,0.000,11.416,0.000,0.000,34.512
13199,4.189,0.000,2.910,0.000,11.416,0.000,0.000,34.544
13319,4.189,0.000,2.910,0.000,11.416,0.000,0.000,34.553
13439,4.188,0.000,2.910,0.000,11.416,0.000,0.000,34.488
13559,4.187,0.000,2.910,0.000,11.416,0.000,0.000,34.557
13679,4.187,0.000,2.910,0.000,11.416,0.000,0.000,34.514
13799,4.186,0.000,2.910,0.000,11.416,0.000,0.000,34.494
13919,4.186,0.000,2.910,0.000,11.416,0.000,0.000,34.517
14039,4.185,0.000,2.910,0.000,11.416,0.000,0.000,34.499
14159,4.185,0.000,2.910,0.000,11.416,0.000,0.000,34.494
14279,4.185,0.000,2.910,0.000,11.416,0.000,0.000,34.483
14399,4.184,0.000,2.910,0.000,11.416,0.000,0.000,34.499
14519,4.184,0.000,2.910,0.000,11.416,0.000,0.000,34.473
14639,4.184,0.000,2.910,0.000,11.416,0.000,0.000,34.510
14759,4.183,0.000,2.910,0.000,11.416,0.000,0.000,34.503
14879,4.183,0.000,2.910,0.000,11.416,0.000,0.000,34.498
14999,4.183,0.000,2.910,0.000,11.416,0.000,0.000,34.484
15119,4.183,0.000,2.910,0.000,11.416,0.000,0.000,34.511
15239,4.182,0.000,2.910,0.000,11.416,0.000,0.000,34.482
15359,4.182,0.000,2.910,0.000,11.416,0.000,0.000,34.503
15479,4.182,0.000,2.910,0.000,11.416,0.000,0.000,34.457
15599,4.182,0.000,2.910,0.000,11.416,0.000,0.000,34.469
15719,4.182,0.000,2.910,0.000,11.416,0.000,0.000,34.472
15839,4.182,0.000,2.910,0.000,11.416,0.000,0.000,34.494
15959,4.182,0.000,2.910,0.000,11.416,0.000,0.000,34.485
16079,4.181,0.000,2.910,0.000,11.416,0.000,0.000,34.511
16199,4.181,0.000,2.910,0.000,11.416,0.000,0.000,34.457
16319,4.181,0.000,2.910,0.000,11.416,0.000,0.000,34.516
16438,3.565,-6.701,2.910,0.078,11.416,0.282,-0.001,35.584
16558,3.489,-6.702,2.910,0.302,11.416,1.069,-0.001,39.669
16678,3.412,-6.703,2.910,0.525,11.416,1.840,-0.001,43.162
16798,3.336,-6.701,2.910,0.748,11.416,2.594,-0.001,45.685
16918,3.264,-6.701,2.910,0.972,11.416,3.331,0.000,47.903
17038,3.191,-6.701,2.910,1.195,11.416,4.052,-0.001,49.952
17158,3.121,-6.701,2.910,1.419,11.416,4.757,-0.001,51.690
17278,3.056,-6.702,2.910,1.642,11.416,5.446,-0.001,53.317
17398,3.000,-6.701,2.910,1.865,11.416,6.123,0.000,54.452
17518,2.946,-6.701,2.910,2.089,11.416,6.787,-0.001,55.999
17638,2.890,-6.701,2.910,2.312,11.416,7.439,-0.001,57.093
17758,2.825,-6.701,2.910,2.535,11.416,8.077,-0.001,58.179
17878,2.751,-6.702,2.910,2.759,11.416,8.700,0.000,59.441
17998,2.665,-6.701,2.910,2.982,11.416,9.305,-0.001,60.353
18118,3.116,0.000,2.910,3.189,11.416,9.843,0.005,62.054
18238,3.229,0.000,2.910,3.189,11.416,9.843,0.000,57.214
18358,3.243,0.000,2.910,3.189,11.416,9.843,0.000,52.790
18478,3.248,0.000,2.910,3.189,11.416,9.843,0.000,49.362
18598,3.252,0.000,2.910,3.189,11.416,9.843,0.000,46.290
18718,3.254,0.000,2.910,3.189,11.416,9.843,0.000,44.066
18838,3.256,0.000,2.910,3.189,11.416,9.843,0.000,42.108
18958,3.258,0.000,2.910,3.189,11.416,9.843,0.000,37.814
19078,3.260,0.000,2.910,3.189,11.416,9.843,0.000,36.132
19198,3.261,0.000,2.910,3.189,11.416,9.843,0.000,36.444
19318,3.262,0.000,2.910,3.189,11.416,9.843,0.000,35.511
19438,3.263,0.000,2.910,3.189,11.416,9.843,0.000,35.385
19558,3.264,0.000,2.910,3.189,11.416,9.843,0.000,35.377
19678,3.264,0.000,2.910,3.189,11.416,9.843,0.000,35.174
19798,3.264,0.000,2.910,3.189,11.416,9.843,0.000,35.039
19918,3.265,0.000,2.910,3.189,11.416,9.843,0.000,34.880
20038,3.265,0.000,2.910,3.189,11.416,9.843,0.000,34.794
20158,3.265,0.000,2.910,3.189,11.416,9.843,0.000,34.839
20278,3.265,0.000,2.910,3.189,11.416,9.843,0.000,34.728
20398,3.266,0.000,2.910,3.189,11.416,9.843,0.000,34.631
20518,3.266,0.000,2.910,3.189,11.416,9.843,0.000,34.651
20638,3.266,0.000,2.910,3.189,11.416,9.843,0.000,34.590
20758,3.266,0.000,2.910,3.189,11.416,9.843,0.000,34.573
20878,3.266,0.000,2.910,3.189,11.416,9.843,0.000,34.585
20998,3.267,0.000,2.910,3.189,11.416,9.843,0.000,34.593
21118,3.267,0.000,2.910,3.189,11.416,9.843,0.000,34.573
21238,3.267,0.000,2.910,3.189,11.416,9.843,0.000,34.548
21358,3.267,0.000,2.910,3.189,11.416,9.843,0.000,34.547
21478,3.267,0.000,2.910,3.189,11.416,9.843,0.000,34.522
21598,3.267,0.000,2.910,3.189,11.416,9.843,0.000,34.511
21709,3.268,0.000,2.910,3.189,11.416,9.843,0.000,34.528